Data from sample_5_A_6Oclock_ST026791__141__23250.txt Node

Date: Tue Aug 19 16:42:31 AEST 2025
User: mathewyoussef
Spectrometer: ST02679
Trigger mode: 0
Integration Time (sec): 6.653700E-1
Scans to average: 1
Nonlinearity correction enabled: true
Boxcar width: 0
Storing dark spectrum: false
XAxis mode: Wavelengths
Number of Pixels in Spectrum: 1516
>>>>>Begin Spectral Data<<<<<
187.304	626.57276
187.653	656.18062
188.002	639.26825
188.351	596.91145
188.7	604.33193
189.048	606.45143
189.397	646.66949
189.746	644.55518
190.094	609.63015
190.443	603.27207
190.791	627.63109
191.14	636.09528
191.488	594.79068
191.837	589.48748
192.185	593.73018
192.533	599.03194
192.881	589.48748
193.229	603.27207
193.577	654.06749
193.925	636.09528
194.273	588.42663
194.621	596.91145
194.969	593.73018
195.317	579.93717
195.664	630.80567
196.012	626.57276
196.359	582.05997
196.707	624.4559
197.054	618.10366
197.402	577.81408
197.749	597.97173
198.096	611.74894
198.443	595.8511
198.791	583.12126
199.138	559.75581
199.485	590.54827
199.832	625.51436
200.179	617.04472
200.525	613.86746
200.872	594.79068
201.219	605.39171
201.566	656.18062
201.912	654.06749
202.259	615.9857
202.605	611.74894
202.952	600.09208
203.298	593.73018
203.644	609.63015
203.991	619.16254
204.337	613.86746
204.683	601.15215
205.029	596.91145
205.375	592.66961
205.721	643.49793
206.067	665.68648
206.413	607.51107
206.759	566.13178
207.104	569.31875
207.45	579.93717
207.796	588.42663
208.141	620.22135
208.487	632.92172
208.832	610.68958
209.177	587.3657
209.523	599.03194
209.868	618.10366
210.213	599.03194
210.558	586.3047
210.903	599.03194
211.248	599.03194
211.593	585.24363
211.938	594.79068
212.283	665.68648
212.628	664.63053
212.973	638.21066
213.317	640.32577
213.662	597.97173
214.007	579.93717
214.351	592.66961
214.696	592.66961
215.04	602.21215
215.384	615.9857
215.729	615.9857
216.073	620.22135
216.417	629.74755
216.761	603.27207
217.105	618.10366
217.449	636.09528
217.793	587.3657
218.137	592.66961
218.481	650.89731
218.824	674.13176
219.168	627.63109
219.512	604.33193
219.855	595.8511
220.199	577.81408
220.542	600.09208
220.886	631.86373
221.229	617.04472
221.572	583.12126
221.916	600.09208
222.259	612.80824
222.602	594.79068
222.945	594.79068
223.288	594.79068
223.631	603.27207
223.974	613.86746
224.317	608.57064
224.659	605.39171
225.002	613.86746
225.345	613.86746
225.687	614.92662
226.03	655.12409
226.372	640.32577
226.715	593.73018
227.057	577.81408
227.4	620.22135
227.742	643.49793
228.084	590.54827
228.426	608.57064
228.768	627.63109
229.11	603.27207
229.452	600.09208
229.794	596.91145
230.136	594.79068
230.478	604.33193
230.82	626.57276
231.161	617.04472
231.503	659.34982
231.845	682.573
232.186	665.68648
232.528	656.18062
232.869	611.74894
233.21	612.80824
233.552	601.15215
233.893	574.62889
234.234	574.62889
234.575	591.60898
234.916	621.28009
235.257	629.74755
235.598	651.95411
235.939	655.12409
236.28	606.45143
236.621	583.12126
236.961	615.9857
237.302	641.38322
237.643	609.63015
237.983	604.33193
238.324	605.39171
238.664	611.74894
239.005	602.21215
239.345	584.18248
239.685	590.54827
240.025	599.03194
240.366	597.97173
240.706	619.16254
241.046	643.49793
241.386	621.28009
241.726	566.13178
242.066	555.50366
242.405	603.27207
242.745	620.22135
243.085	621.28009
243.425	596.91145
243.764	591.60898
244.104	644.55518
244.443	658.29348
244.783	643.49793
245.122	602.21215
245.461	594.79068
245.801	620.22135
246.14	611.74894
246.479	603.27207
246.818	574.62889
247.157	623.39736
247.496	649.84046
247.835	583.12126
248.174	570.38093
248.513	597.97173
248.852	673.07633
249.19	641.38322
249.529	572.50506
249.868	618.10366
250.206	618.10366
250.545	597.97173
250.883	582.05997
251.221	589.48748
251.56	611.74894
251.898	591.60898
252.236	604.33193
252.574	599.03194
252.912	569.31875
253.25	583.12126
253.588	597.97173
253.926	612.80824
254.264	594.79068
254.602	559.75581
254.94	560.81866
255.278	565.06931
255.615	585.24363
255.953	604.33193
256.29	601.15215
256.628	587.3657
256.965	573.56701
257.303	594.79068
257.64	644.55518
257.977	646.66949
258.314	613.86746
258.652	606.45143
258.989	599.03194
259.326	580.99861
259.663	612.80824
260	630.80567
260.337	582.05997
260.673	574.62889
261.01	607.51107
261.347	607.51107
261.684	590.54827
262.02	645.61237
262.357	644.55518
262.693	595.8511
263.03	600.09208
263.366	620.22135
263.702	591.60898
264.039	566.13178
264.375	609.63015
264.711	631.86373
265.047	621.28009
265.383	615.9857
265.719	611.74894
266.055	612.80824
266.391	649.84046
266.727	629.74755
267.063	608.57064
267.399	613.86746
267.734	627.63109
268.07	626.57276
268.405	602.21215
268.741	630.80567
269.076	619.16254
269.412	612.80824
269.747	602.21215
270.082	591.60898
270.418	587.3657
270.753	574.62889
271.088	613.86746
271.423	641.38322
271.758	627.63109
272.093	614.92662
272.428	615.9857
272.763	623.39736
273.098	627.63109
273.433	601.15215
273.767	593.73018
274.102	610.68958
274.436	596.91145
274.771	594.79068
275.106	626.57276
275.44	657.23708
275.774	647.72654
276.109	618.10366
276.443	618.10366
276.777	599.03194
277.111	612.80824
277.445	656.18062
277.78	649.84046
278.114	657.23708
278.447	633.97964
278.781	588.42663
279.115	588.42663
279.449	592.66961
279.783	618.10366
280.116	612.80824
280.45	602.21215
280.784	645.61237
281.117	646.66949
281.451	621.28009
281.784	666.74236
282.117	666.74236
282.451	602.21215
282.784	604.33193
283.117	628.68935
283.45	618.10366
283.783	591.60898
284.116	602.21215
284.449	615.9857
284.782	632.92172
285.115	638.21066
285.448	626.57276
285.781	610.68958
286.114	613.86746
286.446	625.51436
286.779	638.21066
287.111	643.49793
287.444	606.45143
287.776	606.45143
288.109	618.10366
288.441	600.09208
288.773	597.97173
289.106	663.57452
289.438	648.78353
289.77	584.18248
290.102	615.9857
290.434	628.68935
290.766	675.18714
291.098	692.06461
291.43	667.79818
291.762	645.61237
292.094	612.80824
292.425	613.86746
292.757	623.39736
293.089	664.63053
293.42	650.89731
293.752	615.9857
294.083	660.40609
294.414	702.605
294.746	668.85394
295.077	655.12409
295.408	683.62787
295.74	731.03409
296.071	721.56251
296.402	675.18714
296.733	703.65871
297.064	705.76593
297.395	674.13176
297.726	680.46307
298.056	737.34586
298.387	756.26888
298.718	780.42211
299.049	828.64456
299.379	775.17386
299.71	733.13825
300.04	749.96324
300.371	727.87742
300.701	731.03409
301.031	807.69168
301.362	825.50291
301.692	823.40823
302.022	834.92653
302.352	828.64456
302.682	845.39253
303.012	801.40184
303.342	823.40823
303.672	840.16014
304.002	854.8078
304.332	877.80676
304.662	831.78577
304.992	878.85163
305.321	892.43082
305.651	877.80676
305.98	901.82735
306.31	868.40083
306.639	883.03066
306.969	914.35047
307.298	890.34222
307.628	932.0809
307.957	953.96638
308.286	932.0809
308.615	959.17453
308.944	1008.08288
309.273	988.32175
309.602	984.15975
309.931	1065.21136
310.26	1035.10259
310.589	1006.0034
310.918	1034.06382
311.247	1088.03319
311.575	1077.66165
311.904	1066.24907
312.233	1119.12818
312.561	1074.54953
312.89	1086.99619
313.218	1228.77848
313.546	1302.05217
313.875	1166.75248
314.203	1112.9115
314.531	1182.2685
314.859	1183.30267
315.188	1189.5071
315.516	1215.34799
315.844	1210.1812
316.172	1292.77093
316.5	1287.61384
316.827	1229.81141
317.155	1302.05217
317.483	1323.70086
317.811	1280.39288
318.138	1259.75482
318.466	1317.51658
318.794	1337.09726
319.121	1326.79268
319.449	1385.49865
319.776	1390.6449
320.103	1359.75932
320.431	1431.79603
320.758	1488.32654
321.085	1472.91493
321.412	1416.36823
321.739	1377.26354
322.066	1420.48276
322.393	1410.19582
322.72	1447.2193
323.047	1520.16392
323.374	1574.55572
323.701	1537.61572
324.028	1474.97006
324.354	1470.85972
324.681	1449.2754
325.008	1581.73591
325.334	1611.4737
325.661	1540.69492
325.987	1595.06837
326.314	1637.09869
326.64	1600.19549
326.966	1587.8897
327.293	1614.54923
327.619	1660.66489
327.945	1708.79653
328.271	1701.6301
328.597	1697.53468
328.923	1730.29143
329.249	1666.81124
329.575	1578.65879
329.901	1576.60729
330.227	1670.90849
330.552	1765.07909
330.878	1714.93859
331.204	1643.2472
331.529	1608.39802
331.855	1703.67773
332.18	1850.95536
332.506	1738.47827
332.831	1622.74994
333.156	1750.75678
333.482	1811.09634
333.807	1757.91828
334.132	1812.11863
334.457	1893.85762
334.782	1849.93359
335.107	1779.39861
335.432	1768.14779
335.757	1823.36286
336.082	1841.75896
336.407	1825.40709
336.732	1837.67132
337.057	1879.55947
337.381	1816.20763
337.706	1763.03321
338.031	1810.07404
338.355	1810.07404
338.68	1825.40709
339.004	1813.1409
339.329	1926.52948
339.653	1912.23718
339.977	1818.25205
340.301	1894.87882
340.626	1903.04793
340.95	1894.87882
341.274	1852.99886
341.598	1865.25872
341.922	1973.47215
342.246	2002.03277
342.57	1982.65343
342.894	1971.43172
343.218	1997.95329
343.541	2026.50547
343.865	1993.8736
344.189	2010.19114
344.512	2056.06705
344.836	2051.99021
345.159	1971.43172
345.483	1977.55284
345.806	2008.15162
346.13	2074.41038
346.453	2111.08505
346.776	2040.77788
347.099	2101.91788
347.423	2158.94194
347.746	2115.15903
348.069	2121.26963
348.392	2171.15639
348.715	2096.82457
349.038	2061.16282
349.361	2122.28802
349.683	2128.39811
350.006	2116.17749
350.329	2104.97371
350.652	2174.20973
350.974	2173.19196
351.297	2144.68952
351.619	2174.20973
351.942	2218.97941
352.264	2226.09969
352.587	2156.90603
352.909	2214.91042
353.231	2256.60837
353.554	2266.77549
353.876	2287.10606
354.198	2296.25323
354.52	2279.99092
354.842	2300.31831
355.164	2393.76102
355.486	2388.6853
355.808	2382.59402
356.13	2342.98987
356.452	2398.83644
356.773	2423.1941
357.095	2294.22061
357.417	2246.44003
357.738	2296.25323
358.06	2431.31172
358.381	2334.86363
358.703	2292.18794
359.024	2463.77422
359.346	2371.42552
359.667	2323.68876
359.988	2352.13096
360.309	2360.25553
360.631	2447.54458
360.952	2470.87368
361.273	2441.45763
361.594	2467.83113
361.915	2465.8027
362.236	2402.89655
362.557	2447.54458
362.878	2453.63107
363.198	2466.81692
363.519	2522.57964
363.84	2533.72758
364.16	2484.05675
364.481	2531.70079
364.802	2539.80762
365.122	2533.72758
365.443	2546.90042
365.763	2510.4165
366.083	2559.05805
366.404	2494.19613
366.724	2497.23769
367.044	2553.9926
367.364	2499.26534
367.685	2476.95844
368.005	2436.38483
368.325	2435.37024
368.645	2494.19613
368.965	2483.04275
369.284	2397.82138
369.604	2463.77422
369.924	2570.20092
370.244	2621.84291
370.564	2611.71969
370.883	2595.51983
371.203	2641.07343
371.522	2654.22844
371.842	2748.27215
372.161	2737.15471
372.481	2653.2166
372.8	2662.32273
373.119	2695.70273
373.439	2729.06829
373.758	2719.97003
374.077	2679.52029
374.396	2741.19761
374.715	2689.63471
375.034	2557.03191
375.353	2540.82092
375.672	2454.64544
375.991	2329.78432
376.31	2264.74216
376.629	2204.73708
376.948	2247.45692
377.266	2387.67012
377.585	2485.07075
377.904	2558.04499
378.222	2619.81837
378.541	2670.41617
378.859	2725.02475
379.178	2778.58415
379.496	2749.28275
379.814	2693.68011
380.133	2694.69143
380.451	2695.70273
380.769	2609.69489
381.087	2571.21383
381.405	2615.76913
381.723	2636.01323
382.041	2683.56622
382.359	2710.87069
382.677	2690.64608
382.995	2735.13319
383.313	2759.38796
383.631	2758.3775
383.949	2769.49183
384.266	2753.32499
384.584	2733.11161
384.901	2759.38796
385.219	2842.19957
385.537	2870.45562
385.854	2824.02927
386.171	2775.5535
386.489	2813.93274
386.806	2815.95216
387.123	2875.5002
387.441	2942.05609
387.758	2957.17393
388.075	2857.33808
388.392	2748.27215
388.709	2720.981
389.026	2687.61193
389.343	2765.45044
389.66	2825.03885
389.977	2807.87417
390.294	2756.35654
390.61	2791.71557
390.927	2926.9351
391.244	2879.53562
391.56	2830.08653
391.877	2876.50907
392.193	2844.21822
392.51	2880.54444
392.826	2877.51794
393.143	2865.41069
393.459	2900.71791
393.775	2879.53562
394.092	2839.17149
394.408	2875.5002
394.724	2921.89407
395.04	2875.5002
395.356	2888.61449
395.672	2980.34844
395.988	3005.52964
396.304	3034.72869
396.62	3057.87802
396.936	3162.45807
397.252	3231.75617
397.567	3157.43377
397.883	3162.45807
398.199	3134.3173
398.514	3043.78803
398.83	3103.14819
399.146	3124.26427
399.461	3109.18201
399.777	3086.04955
400.092	3036.74198
400.407	3039.7618
400.723	2911.81095
401.038	2866.4197
401.353	2937.01611
401.668	2939.03215
401.983	2906.76887
402.298	2905.76041
402.613	2912.81933
402.928	2893.65783
403.243	2835.13387
403.558	2870.45562
403.873	2945.07991
404.188	2819.99082
404.503	2780.60452
404.817	2860.36541
405.132	2859.35632
405.447	2917.86099
405.761	2991.42926
406.076	2962.2125
406.39	2927.94326
406.705	3009.55781
407.019	3063.91572
407.334	3058.88434
407.648	3050.83337
407.962	2932.98388
408.276	2923.91052
408.591	2965.23548
408.905	2998.4798
409.219	3123.25889
409.533	3084.03767
409.847	3050.83337
410.161	3047.81402
410.475	3007.54376
410.789	2970.27349
411.102	2918.86928
411.416	3059.89064
411.73	3144.36888
412.044	3135.32253
412.357	3039.7618
412.671	2918.86928
412.984	2988.40739
413.298	3008.55079
413.611	3072.97131
413.925	3136.32774
414.238	3100.13109
414.552	3126.27499
414.865	3014.5927
415.178	2903.74345
415.491	2905.76041
415.804	3001.50125
416.118	3004.52257
416.431	2892.64919
416.744	2980.34844
417.057	2997.47262
417.37	2946.08783
417.683	2882.56203
417.995	2895.67507
418.308	2930.96767
418.621	2907.77731
418.934	2894.66645
419.246	2965.23548
419.559	3064.92196
419.872	3003.51547
420.184	3005.52964
420.497	3048.82049
420.809	3154.41901
421.121	3146.37903
421.434	3095.10229
421.746	3111.19316
422.058	3037.7486
422.371	2991.42926
422.683	2979.34101
422.995	2915.84436
423.307	2919.87755
423.619	2988.40739
423.931	2951.12717
424.243	2970.27349
424.555	2959.1894
424.867	2943.06405
425.179	2995.45823
425.491	2948.10361
425.802	2861.3745
426.114	2862.38356
426.426	2878.52678
426.737	2886.59706
427.049	2886.59706
427.361	2985.38539
427.672	2947.09572
427.984	2798.78539
428.295	2826.04841
428.606	2801.8151
428.918	2826.04841
429.229	2969.26591
429.54	2935.00002
429.851	2761.40884
430.163	2729.06829
430.474	2758.3775
430.785	2790.70555
431.096	2832.10551
431.407	2847.24608
431.718	2901.72644
432.029	2933.99196
432.339	2878.52678
432.65	2850.27383
432.961	2801.8151
433.272	2798.78539
433.582	2884.57958
433.893	2865.41069
434.204	2769.49183
434.514	2796.76551
434.825	2839.17149
435.135	2835.13387
435.446	2837.15271
435.756	2854.31063
436.066	2911.81095
436.377	2965.23548
436.687	2920.88582
436.997	2845.22752
437.307	2890.63187
437.617	2912.81933
437.927	2832.10551
438.237	2867.4287
438.547	2897.69225
438.857	2895.67507
439.167	2944.07199
439.477	2927.94326
439.787	2921.89407
440.097	2945.07991
440.407	2913.82769
440.716	2860.36541
441.026	2849.26459
441.336	2914.83603
441.645	2938.02414
441.955	2895.67507
442.264	2863.39262
442.574	2935.00002
442.883	2932.98388
443.192	2836.1433
443.502	2977.32611
443.811	3088.06137
444.12	2994.45101
444.429	2810.90352
444.739	2786.6653
445.048	2872.47349
445.357	2817.97152
445.666	2805.85453
445.975	2908.78574
446.284	2893.65783
446.593	2839.17149
446.901	2822.01007
447.21	2810.90352
447.519	2755.34604
447.828	2751.3039
448.136	2834.12443
448.445	2900.71791
448.754	2842.19957
449.062	2805.85453
449.371	2888.61449
449.679	2883.57081
449.988	2892.64919
450.296	3025.6682
450.605	3123.25889
450.913	3302.99008
451.221	3531.23911
451.529	3527.24133
451.838	3359.12224
452.146	3215.69324
452.454	3294.96743
452.762	3448.23712
453.07	3232.75998
453.378	3036.74198
453.686	3138.33811
453.994	3193.6006
454.302	3121.24808
454.609	3019.62723
454.917	2974.30364
455.225	2986.39274
455.533	2950.11933
455.84	2936.00807
456.148	2956.16617
456.455	2887.60579
456.763	2842.19957
457.07	2981.35586
457.378	3121.24808
457.685	2997.47262
457.993	2878.52678
458.3	2973.29612
458.607	3048.82049
458.915	3016.60656
459.222	3165.47247
459.529	3242.79725
459.836	3196.61365
460.143	3076.99565
460.45	2996.46543
460.757	3013.58575
461.064	2987.40007
461.371	3064.92196
461.678	3121.24808
461.985	3151.40413
462.292	3214.68919
462.598	3278.9193
462.905	3346.09568
463.212	3451.23896
463.518	3457.24224
463.825	3426.21959
464.131	3674.00615
464.438	3848.32158
464.744	3697.93802
465.051	3556.21988
465.357	3565.21072
465.664	3633.10333
465.97	3536.236
466.276	3434.22679
466.582	3352.10824
466.889	3289.95279
467.195	3443.23376
467.501	3632.10539
467.807	3845.33695
468.113	4014.27346
468.419	4218.48256
468.725	4419.22902
469.031	4468.60655
469.337	4533.74741
469.642	4452.80847
469.948	4265.9913
470.254	4280.83234
470.56	4189.76624
470.865	3987.46821
471.171	4004.3467
471.477	3893.07629
471.782	3661.03959
472.088	3609.14892
472.393	3743.78438
472.698	3645.0774
473.004	3412.20472
473.309	3458.24273
473.614	3598.16701
473.92	3708.90403
474.225	3709.90085
474.53	3739.79894
474.835	3800.55234
475.14	3744.78071
475.445	3582.19019
475.75	3541.23252
476.055	3471.24782
476.36	3353.11029
476.665	3265.87742
476.97	3189.583
477.275	3288.94982
477.58	3304.99559
477.885	3242.79725
478.189	3111.19316
478.494	3056.87168
478.799	3065.92818
479.103	3056.87168
479.408	3114.20979
479.712	3131.30155
480.017	3147.38408
480.321	3176.52417
480.625	3231.75617
480.93	3370.14276
481.234	3501.25008
481.538	3592.17614
481.843	3763.70819
482.147	3873.18875
482.451	3891.08779
482.755	3922.89739
483.059	3965.61978
483.363	3977.5379
483.667	4006.33216
483.971	4010.30291
484.275	4011.29557
484.579	4077.77402
484.883	4137.25855
485.187	4104.54764
485.49	4034.12306
485.794	4006.33216
486.098	3951.71288
486.401	3947.739
486.705	3946.7455
487.009	3878.16115
487.312	3937.80337
487.616	3982.50322
487.919	3895.06475
488.222	3857.27476
488.526	3907.98837
488.829	4007.32487
489.132	3980.51713
489.436	3860.2589
489.739	3797.56569
490.042	3827.42649
490.345	3943.76491
490.648	3964.62652
490.951	3882.13882
491.254	3943.76491
491.557	4077.77402
491.86	4086.69958
492.163	4121.4004
492.466	4238.28112
492.769	4384.64955
493.072	4531.77405
493.375	4647.1554
493.677	4660.95388
493.98	4599.83394
494.283	4526.84049
494.585	4496.24716
494.888	4471.56841
495.19	4384.64955
495.493	4420.21682
495.795	4351.0457
496.098	4270.9386
496.4	4283.80024
496.702	4173.91846
497.005	4162.03059
497.307	4202.64031
497.609	4051.98328
497.911	4033.13071
498.213	4134.28538
498.515	4084.71621
498.818	4098.59874
499.12	4162.03059
499.422	4137.25855
499.723	4141.22259
500.025	4242.24028
500.327	4149.15008
500.629	4059.91981
500.931	4139.24059
501.233	4133.29431
501.534	4134.28538
501.836	4125.36523
502.138	4155.09519
502.439	4202.64031
502.741	4205.61096
503.042	4280.83234
503.344	4273.90684
503.645	4312.48472
503.947	4295.67082
504.248	4300.61642
504.55	4307.53979
504.851	4345.11432
505.152	4408.36255
505.453	4289.73573
505.755	4293.6925
506.056	4294.68167
506.357	4275.88561
506.658	4400.45889
506.959	4409.35047
507.26	4341.15985
507.561	4332.26166
507.862	4336.21652
508.163	4385.63771
508.464	4320.39602
508.764	4298.63821
509.065	4230.36226
509.366	4308.5288
509.667	4445.89601
509.967	4382.67319
510.268	4376.74387
510.569	4369.82584
510.869	4323.36258
511.17	4322.37374
511.47	4337.20521
511.771	4242.24028
512.071	4304.5727
512.371	4347.09149
512.672	4310.50678
512.972	4288.74651
513.272	4303.58364
513.573	4389.59025
513.873	4370.81416
514.173	4292.70333
514.473	4340.17121
514.773	4458.73305
515.073	4427.13112
515.373	4394.5307
515.673	4364.88407
515.973	4261.04372
516.273	4299.62732
516.573	4368.83751
516.873	4289.73573
517.172	4231.35216
517.472	4262.03326
517.772	4259.06461
518.072	4309.51779
518.371	4396.5068
518.671	4322.37374
518.97	4247.18896
519.27	4276.87498
519.569	4395.51876
519.869	4472.55568
520.168	4351.0457
520.468	4230.36226
520.767	4282.81095
521.066	4304.5727
521.366	4276.87498
521.665	4293.6925
521.964	4232.34205
522.263	4223.43264
522.562	4347.09149
522.861	4265.9913
523.161	4206.60116
523.46	4270.9386
523.759	4292.70333
524.057	4299.62732
524.356	4267.97026
524.655	4241.25051
524.954	4229.37235
525.253	4263.02279
525.552	4363.89569
525.85	4302.59458
526.149	4267.97026
526.448	4306.55077
526.746	4217.49251
527.045	4269.94916
527.344	4367.84917
527.642	4372.79077
527.941	4322.37374
528.239	4276.87498
528.537	4308.5288
528.836	4343.13711
529.134	4241.25051
529.432	4252.13735
529.731	4316.44046
530.029	4280.83234
530.327	4297.64909
530.625	4312.48472
530.923	4258.07503
531.221	4246.19924
531.52	4283.80024
531.818	4273.90684
532.116	4228.38243
532.413	4259.06461
532.711	4309.51779
533.009	4193.72771
533.307	4138.24957
533.605	4116.44408
533.903	4160.0491
534.2	4304.5727
534.498	4256.09585
534.796	4223.43264
535.093	4205.61096
535.391	4215.51237
535.689	4289.73573
535.986	4294.68167
536.284	4263.02279
536.581	4277.86434
536.878	4380.69679
537.176	4398.48287
537.473	4361.91889
537.77	4338.19389
538.068	4282.81095
538.365	4324.35141
538.662	4423.18015
538.959	4363.89569
539.256	4201.65007
539.554	4244.21978
539.851	4324.35141
540.148	4272.91744
540.445	4318.41826
540.742	4304.5727
541.039	4213.53218
541.335	4291.71414
541.632	4445.89601
541.929	4359.94204
542.226	4290.72494
542.523	4332.26166
542.819	4349.06862
543.116	4347.09149
543.413	4269.94916
543.709	4208.58151
544.006	4265.9913
544.302	4353.02274
544.599	4308.5288
544.895	4232.34205
545.192	4237.29131
545.488	4387.614
545.785	4400.45889
546.081	4289.73573
546.377	4299.62732
546.673	4297.64909
546.97	4257.08545
547.266	4278.85368
547.562	4368.83751
547.858	4293.6925
548.154	4215.51237
548.45	4349.06862
548.746	4454.78337
549.042	4435.03257
549.338	4366.86081
549.634	4275.88561
549.93	4249.16835
550.226	4225.41259
550.522	4246.19924
550.818	4276.87498
551.113	4292.70333
551.409	4356.97669
551.705	4324.35141
552	4274.89623
552.296	4373.77906
552.592	4440.95823
552.887	4375.75561
553.183	4429.10654
553.478	4391.56646
553.774	4281.82165
554.069	4290.72494
554.364	4274.89623
554.66	4193.72771
554.955	4163.02131
555.25	4263.02279
555.546	4274.89623
555.841	4338.19389
556.136	4365.87245
556.431	4288.74651
556.726	4266.98078
557.021	4165.00272
557.316	4202.64031
557.611	4233.33192
557.906	4193.72771
558.201	4164.01202
558.496	4091.65778
558.791	4167.97474
559.086	4172.92787
559.381	4177.88069
559.675	4281.82165
559.97	4308.5288
560.265	4348.08006
560.56	4295.67082
560.854	4228.38243
561.149	4222.44265
561.443	4141.22259
561.738	4022.21393
562.032	4140.23159
562.327	4180.85224
562.621	4052.97539
562.916	4081.74106
563.21	4147.16828
563.504	4091.65778
563.799	4011.29557
564.093	4055.95164
564.387	3960.65333
564.681	3925.87883
564.976	4010.30291
565.27	4020.22889
565.564	4066.8636
565.858	4048.0147
566.152	3935.81608
566.446	3893.07629
566.74	3915.94023
567.034	3962.63995
567.328	4006.33216
567.622	4112.4788
567.916	4076.78223
568.209	3914.94629
568.503	3943.76491
568.797	3991.43996
569.091	3980.51713
569.384	3848.32158
569.678	3806.52525
569.972	3901.02978
570.265	3909.97642
570.559	3822.45056
570.852	3836.38228
571.146	3895.06475
571.439	3859.2642
571.733	3893.07629
572.026	3909.97642
572.319	3913.95234
572.613	3916.93415
572.906	3910.97042
573.199	3928.86014
573.492	3901.02978
573.786	3858.26948
574.079	3993.42576
574.372	4018.2438
574.665	3861.25358
574.958	3877.1667
575.251	3781.63478
575.544	3725.84809
575.837	3800.55234
576.13	3788.60499
576.423	3719.86831
576.716	3683.97876
577.009	3754.74318
577.301	3815.48368
577.594	3805.5298
577.887	3766.69627
578.18	3792.58767
578.472	3802.54336
578.765	3818.46957
579.057	3717.87493
579.35	3676.99808
579.643	3724.8515
579.935	3709.90085
580.228	3721.86163
580.52	3760.71998
580.813	3733.82035
581.105	3694.94698
581.397	3685.97312
581.69	3656.0518
581.982	3697.93802
582.274	3697.93802
582.566	3623.12334
582.859	3644.07964
583.151	3720.86497
583.443	3765.70026
583.735	3871.19969
584.027	3827.42649
584.319	3707.90719
584.611	3661.03959
584.903	3555.22083
585.195	3592.17614
585.487	3613.1419
585.779	3507.24894
586.071	3580.19283
586.363	3670.01669
586.654	3638.09278
586.946	3619.13094
587.238	3596.17011
587.529	3542.23178
587.821	3511.24789
588.113	3572.20278
588.404	3596.17011
588.696	3534.23729
588.987	3518.24548
589.279	3612.14367
589.57	3617.13465
589.862	3597.16857
590.153	3626.11749
590.445	3591.17761
590.736	3541.23252
591.027	3548.22703
591.319	3569.20627
591.61	3551.22446
591.901	3464.24539
592.192	3436.22844
592.484	3510.24818
592.775	3500.25022
593.066	3559.21696
593.357	3683.97876
593.648	3528.2408
593.939	3410.20236
594.23	3444.23446
594.521	3438.23004
594.812	3449.23775
595.103	3420.21357
595.393	3456.24173
595.684	3375.1515
595.975	3278.9193
596.266	3328.05479
596.557	3414.20702
596.847	3332.06429
597.138	3219.70933
597.429	3255.84352
597.719	3299.98169
598.01	3265.87742
598.3	3186.56964
598.591	3211.67693
598.881	3326.04995
599.172	3294.96743
599.462	3256.84698
599.753	3254.84005
600.043	3165.47247
600.333	3129.29097
600.624	3205.65201
600.914	3241.79359
601.204	3203.64359
601.494	3132.30681
601.785	3130.29626
602.075	3145.37396
602.365	3067.94057
602.655	3020.6341
602.945	3006.53671
603.235	3063.91572
603.525	3036.74198
603.815	3009.55781
604.105	3063.91572
604.395	3141.35356
604.685	3106.16516
604.975	3098.11961
605.265	3163.46289
605.554	3016.60656
605.844	2979.34101
606.134	3063.91572
606.424	3033.72203
606.713	2984.37803
607.003	2966.24311
607.293	3087.05547
607.582	3090.07314
607.872	3039.7618
608.161	3011.57181
608.451	2920.88582
608.74	2953.14282
609.03	2986.39274
609.319	2949.11148
609.608	2832.10551
609.898	2769.49183
610.187	2861.3745
610.476	2966.24311
610.766	2987.40007
611.055	2937.01611
611.344	2878.52678
611.633	2882.56203
611.922	2890.63187
612.211	2859.35632
612.501	2895.67507
612.79	2986.39274
613.079	2883.57081
613.368	2778.58415
613.657	2831.09602
613.946	2862.38356
614.234	2910.80256
614.523	2897.69225
614.812	2886.59706
615.101	2851.28305
615.39	2853.30145
615.679	2880.54444
615.967	2909.79416
616.256	2949.11148
616.545	2864.40166
616.833	2817.97152
617.122	2807.87417
617.411	2808.88396
617.699	2863.39262
617.988	2859.35632
618.276	2756.35654
618.565	2720.981
618.853	2753.32499
619.141	2823.01968
619.43	2817.97152
619.718	2856.32894
620.007	2896.68366
620.295	2876.50907
620.583	2859.35632
620.871	2833.11497
621.16	2843.2089
621.448	2830.08653
621.736	2914.83603
622.024	2892.64919
622.312	2808.88396
622.6	2764.44006
622.888	2844.21822
623.176	2866.4197
623.464	2709.85959
623.752	2748.27215
624.04	2799.79531
624.328	2808.88396
624.616	2739.17619
624.904	2606.65759
625.192	2682.55475
625.479	2699.74782
625.767	2620.83064
626.055	2657.2639
626.343	2709.85959
626.63	2693.68011
626.918	2661.31099
627.206	2627.91621
627.493	2485.07075
627.781	2466.81692
628.068	2558.04499
628.356	2605.64513
628.643	2670.41617
628.931	2556.01882
629.218	2467.83113
629.505	2524.60665
629.793	2568.17506
630.08	2492.16836
630.367	2378.53292
630.655	2477.97252
630.942	2564.12319
631.229	2580.32945
631.516	2527.64708
631.804	2448.55902
632.091	2487.0987
632.378	2481.0147
632.665	2509.40282
632.952	2551.96633
633.239	2468.84533
633.526	2518.52546
633.813	2591.46935
634.1	2514.47108
634.387	2402.89655
634.674	2398.83644
634.961	2408.98633
635.247	2444.50116
635.534	2440.4431
635.821	2422.17934
636.108	2505.34798
636.394	2477.97252
636.681	2395.79123
636.968	2314.54457
637.255	2269.82539
637.541	2329.78432
637.828	2371.42552
638.114	2319.6248
638.401	2331.81608
638.687	2295.23692
638.974	2262.70879
639.26	2376.5023
639.547	2387.67012
639.833	2302.35078
640.119	2309.46404
640.406	2297.26952
640.692	2329.78432
640.978	2430.29706
641.265	2411.01616
641.551	2321.6568
641.837	2299.30206
642.123	2322.67278
642.409	2385.63972
642.696	2351.11533
642.982	2226.09969
643.268	2225.08254
643.554	2286.08965
643.84	2423.1941
644.126	2425.22358
644.412	2461.74569
644.698	2482.02873
644.984	2440.4431
645.269	2421.16457
645.555	2323.68876
645.841	2456.67415
646.127	2493.18225
646.413	2433.34101
646.698	2470.87368
646.984	2431.31172
647.27	2435.37024
647.556	2527.64708
647.841	2618.80608
648.127	2718.95905
648.412	2703.79268
648.698	2702.78149
648.984	2753.32499
649.269	2735.13319
649.554	2803.83485
649.84	2733.11161
650.125	2712.89286
650.411	2728.05742
650.696	2647.14525
650.982	2792.72559
651.267	2798.78539
651.552	2660.29924
651.837	2651.19287
652.123	2638.03735
652.408	2649.16909
652.693	2642.08544
652.978	2586.40595
653.263	2565.13617
653.549	2580.32945
653.834	2548.92682
654.119	2421.16457
654.404	2407.9714
654.689	2519.53903
654.974	2496.22385
655.259	2443.48666
655.544	2559.05805
655.828	2611.71969
656.113	2538.79431
656.398	2547.91363
656.683	2641.07343
656.968	1877.51666
657.253	864.21921
657.537	646.66949
657.822	588.42663
658.107	588.42663
658.391	594.79068
658.676	561.88144
658.961	539.54717
659.245	552.31374
659.53	566.13178
659.814	555.50366
660.099	574.62889
660.383	589.48748
660.668	588.42663
