Data from sample_5_A_12Oclock_ST026791__129__22938.txt Node

Date: Tue Aug 19 16:33:49 AEST 2025
User: mathewyoussef
Spectrometer: ST02679
Trigger mode: 0
Integration Time (sec): 6.653700E-1
Scans to average: 1
Nonlinearity correction enabled: true
Boxcar width: 0
Storing dark spectrum: false
XAxis mode: Wavelengths
Number of Pixels in Spectrum: 1516
>>>>>Begin Spectral Data<<<<<
187.304	615.9857
187.653	666.74236
188.002	641.38322
188.351	597.97173
188.7	580.99861
189.048	577.81408
189.397	629.74755
189.746	630.80567
190.094	618.10366
190.443	640.32577
190.791	594.79068
191.14	582.05997
191.488	590.54827
191.837	609.63015
192.185	600.09208
192.533	573.56701
192.881	601.15215
193.229	605.39171
193.577	618.10366
193.925	621.28009
194.273	618.10366
194.621	628.68935
194.969	633.97964
195.317	593.73018
195.664	577.81408
196.012	608.57064
196.359	605.39171
196.707	621.28009
197.054	620.22135
197.402	622.33876
197.749	621.28009
198.096	611.74894
198.443	575.69069
198.791	544.86793
199.138	583.12126
199.485	602.21215
199.832	609.63015
200.179	617.04472
200.525	589.48748
200.872	577.81408
201.219	601.15215
201.566	608.57064
201.912	596.91145
202.259	582.05997
202.605	586.3047
202.952	632.92172
203.298	631.86373
203.644	601.15215
203.991	582.05997
204.337	582.05997
204.683	587.3657
205.029	550.18675
205.375	555.50366
205.721	612.80824
206.067	624.4559
206.413	600.09208
206.759	573.56701
207.104	597.97173
207.45	609.63015
207.796	599.03194
208.141	609.63015
208.487	599.03194
208.832	579.93717
209.177	561.88144
209.523	599.03194
209.868	594.79068
210.213	577.81408
210.558	574.62889
210.903	593.73018
211.248	636.09528
211.593	633.97964
211.938	606.45143
212.283	615.9857
212.628	618.10366
212.973	600.09208
213.317	576.75242
213.662	591.60898
214.007	621.28009
214.351	571.44303
214.696	573.56701
215.04	603.27207
215.384	621.28009
215.729	589.48748
216.073	582.05997
216.417	630.80567
216.761	609.63015
217.105	574.62889
217.449	587.3657
217.793	601.15215
218.137	577.81408
218.481	587.3657
218.824	627.63109
219.168	607.51107
219.512	618.10366
219.855	638.21066
220.199	623.39736
220.542	617.04472
220.886	620.22135
221.229	629.74755
221.572	594.79068
221.916	591.60898
222.259	600.09208
222.602	574.62889
222.945	597.97173
223.288	591.60898
223.631	567.19418
223.974	584.18248
224.317	597.97173
224.659	611.74894
225.002	641.38322
225.345	624.4559
225.687	584.18248
226.03	618.10366
226.372	610.68958
226.715	590.54827
227.057	608.57064
227.4	627.63109
227.742	636.09528
228.084	593.73018
228.426	587.3657
228.768	615.9857
229.11	610.68958
229.452	615.9857
229.794	606.45143
230.136	580.99861
230.478	576.75242
230.82	584.18248
231.161	571.44303
231.503	653.01083
231.845	711.03295
232.186	673.07633
232.528	625.51436
232.869	580.99861
233.21	612.80824
233.552	633.97964
233.893	613.86746
234.234	593.73018
234.575	609.63015
234.916	628.68935
235.257	606.45143
235.598	610.68958
235.939	605.39171
236.28	588.42663
236.621	617.04472
236.961	632.92172
237.302	621.28009
237.643	589.48748
237.983	588.42663
238.324	595.8511
238.664	619.16254
239.005	622.33876
239.345	592.66961
239.685	605.39171
240.025	613.86746
240.366	608.57064
240.706	612.80824
241.046	615.9857
241.386	609.63015
241.726	600.09208
242.066	594.79068
242.405	595.8511
242.745	620.22135
243.085	592.66961
243.425	555.50366
243.764	639.26825
244.104	713.13934
244.443	681.51806
244.783	645.61237
245.122	606.45143
245.461	577.81408
245.801	608.57064
246.14	614.92662
246.479	600.09208
246.818	596.91145
247.157	611.74894
247.496	645.61237
247.835	625.51436
248.174	584.18248
248.513	578.87566
248.852	612.80824
249.19	627.63109
249.529	615.9857
249.868	603.27207
250.206	605.39171
250.545	612.80824
250.883	592.66961
251.221	589.48748
251.56	591.60898
251.898	580.99861
252.236	595.8511
252.574	600.09208
252.912	607.51107
253.25	607.51107
253.588	575.69069
253.926	614.92662
254.264	627.63109
254.602	607.51107
254.94	609.63015
255.278	607.51107
255.615	611.74894
255.953	584.18248
256.29	586.3047
256.628	622.33876
256.965	591.60898
257.303	587.3657
257.64	653.01083
257.977	632.92172
258.314	604.33193
258.652	602.21215
258.989	592.66961
259.326	593.73018
259.663	601.15215
260	600.09208
260.337	570.38093
260.673	553.37712
261.01	573.56701
261.347	588.42663
261.684	588.42663
262.02	611.74894
262.357	595.8511
262.693	593.73018
263.03	629.74755
263.366	610.68958
263.702	580.99861
264.039	609.63015
264.375	654.06749
264.711	636.09528
265.047	586.3047
265.383	608.57064
265.719	608.57064
266.055	607.51107
266.391	651.95411
266.727	633.97964
267.063	604.33193
267.399	601.15215
267.734	627.63109
268.07	626.57276
268.405	618.10366
268.741	628.68935
269.076	628.68935
269.412	583.12126
269.747	567.19418
270.082	586.3047
270.418	575.69069
270.753	606.45143
271.088	624.4559
271.423	591.60898
271.758	586.3047
272.093	612.80824
272.428	599.03194
272.763	589.48748
273.098	594.79068
273.433	574.62889
273.767	570.38093
274.102	580.99861
274.436	570.38093
274.771	579.93717
275.106	586.3047
275.44	601.15215
275.774	612.80824
276.109	594.79068
276.443	611.74894
276.777	604.33193
277.111	608.57064
277.445	618.10366
277.78	606.45143
278.114	631.86373
278.447	612.80824
278.781	554.44043
279.115	536.35378
279.449	575.69069
279.783	604.33193
280.116	627.63109
280.45	638.21066
280.784	597.97173
281.117	610.68958
281.451	609.63015
281.784	675.18714
282.117	668.85394
282.451	568.25651
282.784	572.50506
283.117	588.42663
283.45	595.8511
283.783	593.73018
284.116	602.21215
284.449	594.79068
284.782	599.03194
285.115	649.84046
285.448	642.44061
285.781	577.81408
286.114	575.69069
286.446	582.05997
286.779	615.9857
287.111	622.33876
287.444	592.66961
287.776	606.45143
288.109	628.68935
288.441	610.68958
288.773	592.66961
289.106	637.15301
289.438	626.57276
289.77	638.21066
290.102	643.49793
290.434	588.42663
290.766	650.89731
291.098	659.34982
291.43	630.80567
291.762	630.80567
292.094	625.51436
292.425	614.92662
292.757	597.97173
293.089	609.63015
293.42	618.10366
293.752	638.21066
294.083	624.4559
294.414	644.55518
294.746	663.57452
295.077	621.28009
295.408	594.79068
295.74	640.32577
296.071	659.34982
296.402	622.33876
296.733	632.92172
297.064	656.18062
297.395	654.06749
297.726	663.57452
298.056	712.08617
298.387	716.29847
298.718	731.03409
299.049	756.26888
299.379	700.49741
299.71	680.46307
300.04	684.68268
300.371	698.38958
300.701	704.71235
301.031	720.50982
301.362	741.55257
301.692	759.42095
302.022	755.21808
302.352	721.56251
302.682	733.13825
303.012	722.61514
303.342	728.9297
303.672	742.6041
304.002	769.92426
304.332	769.92426
304.662	773.07418
304.992	795.11013
305.321	769.92426
305.651	768.87417
305.98	798.25622
306.31	802.45027
306.639	791.96357
306.969	811.88388
307.298	815.02749
307.628	830.73875
307.957	828.64456
308.286	844.34615
308.615	890.34222
308.944	895.5634
309.273	878.85163
309.602	869.44612
309.931	892.43082
310.26	915.39378
310.589	942.50484
310.918	926.86735
311.247	993.52338
311.575	939.37809
311.904	872.58171
312.233	973.75202
312.561	920.60968
312.89	897.65156
313.218	1049.64154
313.546	1103.58432
313.875	998.72405
314.203	918.52345
314.531	957.09139
314.859	1016.39928
315.188	1034.06382
315.516	1028.86946
315.844	1026.79146
316.172	1122.23609
316.5	1138.8069
316.827	1089.07016
317.155	1109.80273
317.483	1131.55815
317.811	1089.07016
318.138	1054.83235
318.466	1088.03319
318.794	1082.84784
319.121	1140.8777
319.449	1255.62599
319.776	1183.30267
320.103	1102.54781
320.431	1187.43907
320.758	1258.72265
321.085	1200.87923
321.412	1205.01372
321.739	1223.61345
322.066	1182.2685
322.393	1139.84232
322.72	1159.50942
323.047	1260.78696
323.374	1370.05669
323.701	1312.36237
324.028	1261.81908
324.354	1289.67675
324.681	1223.61345
325.008	1291.73956
325.334	1296.89617
325.661	1274.20252
325.987	1342.24869
326.314	1349.45973
326.64	1331.94526
326.966	1390.6449
327.293	1424.59696
327.619	1392.70325
327.945	1352.54984
328.271	1396.81969
328.597	1438.99412
328.923	1359.75932
329.249	1347.39955
329.575	1394.76151
329.901	1357.69958
330.227	1391.67408
330.552	1491.40836
330.878	1427.6824
331.204	1348.42965
331.529	1338.12759
331.855	1448.24736
332.18	1531.45685
332.506	1425.62546
332.831	1374.17502
333.156	1469.83209
333.482	1515.03005
333.807	1431.79603
334.132	1441.05053
334.457	1560.19283
334.782	1540.69492
335.107	1456.47113
335.432	1446.19123
335.757	1498.5986
336.082	1516.05686
336.407	1486.27191
336.732	1447.2193
337.057	1463.6659
337.381	1503.73394
337.706	1522.21735
338.031	1496.54434
338.355	1432.82439
338.68	1484.2172
339.004	1579.68451
339.329	1611.4737
339.653	1556.08853
339.977	1528.37718
340.301	1578.65879
340.626	1555.06241
340.95	1600.19549
341.274	1617.62462
341.598	1573.52991
341.922	1651.44433
342.246	1649.39514
342.57	1604.29689
342.894	1583.78724
343.218	1632.99937
343.541	1689.3431
343.865	1656.56702
344.189	1641.19776
344.512	1696.51078
344.836	1712.8913
345.159	1694.46295
345.483	1709.82024
345.806	1698.55855
346.13	1699.58242
346.453	1689.3431
346.776	1672.95703
347.099	1750.75678
347.423	1782.46672
347.746	1675.0055
348.069	1741.54809
348.392	1793.71537
348.715	1692.41505
349.038	1750.75678
349.361	1813.1409
349.683	1791.67029
350.006	1751.77989
350.329	1778.37588
350.652	1859.12903
350.974	1841.75896
351.297	1880.58085
351.619	1893.85762
351.942	1874.45236
352.264	1868.32339
352.587	1872.40942
352.909	1840.73707
353.231	1777.35313
353.554	1818.25205
353.876	1894.87882
354.198	2040.77788
354.52	2006.11206
354.842	1950.0042
355.164	2044.85527
355.486	2075.42934
355.808	2026.50547
356.13	1938.77801
356.452	2054.02866
356.773	2071.35344
357.095	1904.06901
357.417	1918.36277
357.738	1946.94267
358.06	1976.53269
358.381	1956.12692
358.703	1951.02469
359.024	2076.44828
359.346	2027.52501
359.667	1959.18811
359.988	2002.03277
360.309	2063.20104
360.631	1998.97318
360.952	2001.01292
361.273	2060.14369
361.594	2056.06705
361.915	2145.70763
362.236	2076.44828
362.557	2024.46635
362.878	2128.39811
363.198	2132.47126
363.519	2083.58054
363.84	2090.7122
364.16	2082.56168
364.481	2132.47126
364.802	2111.08505
365.122	2186.42199
365.443	2238.30448
365.763	2167.0851
366.083	2126.36146
366.404	2036.7003
366.724	2105.9923
367.044	2184.38673
367.364	2133.48951
367.685	2037.71971
368.005	1989.79372
368.325	2019.36834
368.645	2038.73911
368.965	2056.06705
369.284	2085.61822
369.604	2086.63704
369.924	2147.74381
370.244	2267.79214
370.564	2226.09969
370.883	2137.56241
371.203	2202.70226
371.522	2244.40622
371.842	2302.35078
372.161	2274.90831
372.481	2226.09969
372.8	2239.32146
373.119	2272.87518
373.439	2281.00741
373.758	2296.25323
374.077	2259.65863
374.396	2266.77549
374.715	2293.20428
375.034	2140.61696
375.353	2131.45299
375.672	2126.36146
375.991	1934.69537
376.31	1840.73707
376.629	1880.58085
376.948	1937.75737
377.266	2008.15162
377.585	2104.97371
377.904	2232.2023
378.222	2205.75447
378.541	2237.28748
378.859	2330.80021
379.178	2372.4409
379.496	2338.92685
379.814	2313.52849
380.133	2305.39939
380.451	2238.30448
380.769	2209.8239
381.087	2201.68484
381.405	2217.96218
381.723	2217.96218
382.041	2265.75883
382.359	2271.85859
382.677	2302.35078
382.995	2380.5635
383.313	2337.91106
383.631	2270.842
383.949	2246.44003
384.266	2260.67537
384.584	2309.46404
384.901	2339.94262
385.219	2326.7366
385.537	2334.86363
385.854	2360.25553
386.171	2334.86363
386.489	2358.22446
386.806	2399.85148
387.123	2460.73141
387.441	2466.81692
387.758	2456.67415
388.075	2412.03106
388.392	2350.09969
388.709	2336.89526
389.026	2320.6408
389.343	2323.68876
389.66	2351.11533
389.977	2382.59402
390.294	2367.36388
390.61	2475.94435
390.927	2572.22673
391.244	2460.73141
391.56	2381.57877
391.877	2347.0527
392.193	2334.86363
392.51	2400.86652
392.826	2417.10536
393.143	2407.9714
393.459	2396.80631
393.775	2369.39473
394.092	2344.0056
394.408	2347.0527
394.724	2387.67012
395.04	2441.45763
395.356	2471.88784
395.672	2572.22673
395.988	2663.33445
396.304	2581.34224
396.62	2504.33424
396.936	2579.31666
397.252	2657.2639
397.567	2642.08544
397.883	2646.13332
398.199	2652.20474
398.514	2556.01882
398.83	2592.48199
399.146	2611.71969
399.461	2558.04499
399.777	2603.62017
400.092	2586.40595
400.407	2516.4983
400.723	2465.8027
401.038	2476.95844
401.353	2480.00065
401.668	2491.15445
401.983	2486.08473
402.298	2459.71711
402.613	2448.55902
402.928	2396.80631
403.243	2367.36388
403.558	2422.17934
403.873	2464.78847
404.188	2411.01616
404.503	2407.9714
404.817	2401.88154
405.132	2401.88154
405.447	2438.41399
405.761	2529.67396
406.076	2538.79431
406.39	2420.14978
406.705	2454.64544
407.019	2543.86073
407.334	2560.0711
407.648	2557.03191
407.962	2504.33424
408.276	2450.58788
408.591	2488.11266
408.905	2565.13617
409.219	2605.64513
409.533	2606.65759
409.847	2592.48199
410.161	2531.70079
410.475	2559.05805
410.789	2607.67003
411.102	2594.50723
411.416	2688.62333
411.73	2717.94805
412.044	2710.87069
412.357	2676.4857
412.671	2598.55756
412.984	2573.23962
413.298	2572.22673
413.611	2649.16909
413.925	2683.56622
414.238	2681.54328
414.552	2682.55475
414.865	2573.23962
415.178	2515.48469
415.491	2516.4983
415.804	2540.82092
416.118	2581.34224
416.431	2487.0987
416.744	2435.37024
417.057	2445.51565
417.37	2430.29706
417.683	2441.45763
417.995	2494.19613
418.308	2530.68738
418.621	2514.47108
418.934	2452.61669
419.246	2476.95844
419.559	2594.50723
419.872	2585.39324
420.184	2587.41866
420.497	2593.49461
420.809	2544.87397
421.121	2592.48199
421.434	2553.9926
421.746	2504.33424
422.058	2559.05805
422.371	2548.92682
422.683	2520.55258
422.995	2434.35563
423.307	2455.6598
423.619	2522.57964
423.931	2419.13499
424.243	2424.20885
424.555	2458.7028
424.867	2455.6598
425.179	2517.51189
425.491	2518.52546
425.802	2456.67415
426.114	2443.48666
426.426	2458.7028
426.737	2388.6853
427.049	2454.64544
427.361	2583.36776
427.672	2515.48469
427.984	2402.89655
428.295	2434.35563
428.606	2477.97252
428.918	2485.07075
429.229	2618.80608
429.54	2545.8872
429.851	2334.86363
430.163	2349.08404
430.474	2368.37931
430.785	2397.82138
431.096	2420.14978
431.407	2384.6245
431.718	2357.20891
432.029	2424.20885
432.339	2389.70047
432.65	2379.54822
432.961	2412.03106
433.272	2337.91106
433.582	2393.76102
433.893	2334.86363
434.204	2289.13885
434.514	2358.22446
434.825	2292.18794
435.135	2281.00741
435.446	2342.98987
435.756	2460.73141
436.066	2549.94
436.377	2508.38913
436.687	2408.98633
436.997	2336.89526
437.307	2399.85148
437.617	2456.67415
437.927	2464.78847
438.237	2447.54458
438.547	2465.8027
438.857	2448.55902
439.167	2377.51762
439.477	2435.37024
439.787	2531.70079
440.097	2537.78099
440.407	2471.88784
440.716	2384.6245
441.026	2417.10536
441.336	2538.79431
441.645	2526.63361
441.955	2421.16457
442.264	2469.85951
442.574	2582.355
442.883	2514.47108
443.192	2468.84533
443.502	2516.4983
443.811	2526.63361
444.12	2491.15445
444.429	2445.51565
444.739	2480.00065
445.048	2547.91363
445.357	2503.32048
445.666	2434.35563
445.975	2459.71711
446.284	2444.50116
446.593	2414.06082
446.901	2442.47215
447.21	2453.63107
447.519	2413.04594
447.828	2405.9415
448.136	2438.41399
448.445	2482.02873
448.754	2450.58788
449.062	2458.7028
449.371	2518.52546
449.679	2555.00571
449.988	2546.90042
450.296	2595.51983
450.605	2753.32499
450.913	2866.4197
451.221	3005.52964
451.529	3072.97131
451.838	3009.55781
452.146	2874.49131
452.454	2849.26459
452.762	3059.89064
453.07	2965.23548
453.378	2732.1008
453.686	2762.41926
453.994	2883.57081
454.302	2838.16211
454.609	2691.65744
454.917	2599.57011
455.225	2611.71969
455.533	2582.355
455.84	2564.12319
456.148	2656.25209
456.455	2596.53242
456.763	2595.51983
457.07	2657.2639
457.378	2729.06829
457.685	2711.88178
457.993	2657.2639
458.3	2695.70273
458.607	2684.57767
458.915	2723.0029
459.222	2863.39262
459.529	2835.13387
459.836	2816.96184
460.143	2744.22964
460.45	2644.1094
460.757	2661.31099
461.064	2681.54328
461.371	2824.02927
461.678	2840.18087
461.985	2749.28275
462.292	2769.49183
462.598	2929.95955
462.905	3065.92818
463.212	3099.12536
463.518	3158.43866
463.825	3157.43377
464.131	3346.09568
464.438	3425.21862
464.744	3285.94082
465.051	3232.75998
465.357	3233.76377
465.664	3298.97887
465.97	3203.64359
466.276	3096.10808
466.582	3066.93438
466.889	3019.62723
467.195	3111.19316
467.501	3256.84698
467.807	3449.23775
468.113	3651.06365
468.419	3848.32158
468.725	4049.00686
469.031	4067.85552
469.337	4113.47014
469.642	4106.5305
469.948	4006.33216
470.254	3977.5379
470.56	3792.58767
470.865	3541.23252
471.171	3541.23252
471.477	3531.23911
471.782	3369.14097
472.088	3276.91302
472.393	3449.23775
472.698	3366.1355
473.004	3166.47725
473.309	3297.97603
473.614	3387.17098
473.92	3435.22763
474.225	3451.23896
474.53	3421.21461
474.835	3444.23446
475.14	3390.17551
475.445	3319.03255
475.75	3232.75998
476.055	3093.09067
476.36	3069.95291
476.665	2960.19711
476.97	2930.96767
477.275	3039.7618
477.58	3006.53671
477.885	2935.00002
478.189	2858.34721
478.494	2831.09602
478.799	2808.88396
479.103	2809.89375
479.408	2844.21822
479.712	2864.40166
480.017	2959.1894
480.321	3078.00169
480.625	3033.72203
480.93	3045.80105
481.234	3186.56964
481.538	3325.04751
481.843	3482.25019
482.147	3554.22176
482.451	3567.20853
482.755	3573.20159
483.059	3661.03959
483.363	3676.00078
483.667	3706.91034
483.971	3838.3723
484.275	3793.5833
484.579	3782.63056
484.883	3885.12193
485.187	3865.23219
485.49	3784.6221
485.794	3789.60068
486.098	3790.59636
486.401	3736.80971
486.705	3672.01145
487.009	3647.07287
487.312	3685.97312
487.616	3747.7696
487.919	3703.91969
488.222	3605.1557
488.526	3597.16857
488.829	3648.07059
489.132	3708.90403
489.436	3597.16857
489.739	3568.20741
490.042	3599.16544
490.345	3657.04939
490.648	3728.8378
490.951	3728.8378
491.254	3778.64733
491.557	3785.61784
491.86	3808.51611
492.163	3940.7842
492.466	3970.58589
492.769	4039.08465
493.072	4218.48256
493.375	4304.5727
493.677	4438.98305
493.98	4429.10654
494.283	4308.5288
494.585	4191.747
494.888	4095.62412
495.19	4116.44408
495.493	4181.84274
495.795	4119.41791
496.098	4075.79042
496.4	4002.3612
496.702	3803.53886
497.005	3858.26948
497.307	4019.23635
497.609	3883.13321
497.911	3787.60929
498.213	3771.67613
498.515	3730.83086
498.818	3823.44577
499.12	3870.20514
499.422	3911.96441
499.723	3925.87883
500.025	3925.87883
500.327	3807.52069
500.629	3768.68825
500.931	3863.24292
501.233	3841.35723
501.534	3845.33695
501.836	3884.12758
502.138	3962.63995
502.439	3964.62652
502.741	3953.69974
503.042	4004.3467
503.344	4004.3467
503.645	4073.80678
503.947	4141.22259
504.248	4171.93727
504.55	4097.60721
504.851	4092.64939
505.152	4172.92787
505.453	4064.87973
505.755	4109.50471
506.056	4127.34758
506.357	4061.90381
506.658	4096.61567
506.959	4023.20642
507.26	4049.99901
507.561	4085.7079
507.862	4116.44408
508.163	4092.64939
508.464	4070.83121
508.764	4100.58175
509.065	4032.13834
509.366	4150.14096
509.667	4239.27093
509.967	4133.29431
510.268	4049.99901
510.569	4054.95957
510.869	4092.64939
511.17	4111.48745
511.47	4113.47014
511.771	4046.03033
512.071	4100.58175
512.371	4113.47014
512.672	4057.93575
512.972	4136.2675
513.272	4217.49251
513.573	4165.9934
513.873	4165.00272
514.173	4179.86174
514.473	4069.83933
514.773	4120.40916
515.073	4181.84274
515.373	4125.36523
515.673	4010.30291
515.973	3969.5927
516.273	4018.2438
516.573	4029.16115
516.873	4004.3467
517.172	4084.71621
517.472	4102.56472
517.772	4063.88777
518.072	4089.67454
518.371	4170.94665
518.671	4157.07679
518.97	4080.74932
519.27	4137.25855
519.569	4141.22259
519.869	4127.34758
520.168	4137.25855
520.468	4158.06757
520.767	4099.59025
521.066	3992.43286
521.366	4049.00686
521.665	4111.48745
521.964	4050.99115
522.263	4004.3467
522.562	4075.79042
522.861	4054.95957
523.161	3997.39719
523.46	4024.19891
523.759	4065.87167
524.057	4167.97474
524.356	4111.48745
524.655	3997.39719
524.954	4021.22141
525.253	4078.7658
525.552	4130.321
525.85	4169.95603
526.149	4197.68899
526.448	4084.71621
526.746	3910.97042
527.045	3947.739
527.344	4084.71621
527.642	4204.62076
527.941	4176.89015
528.239	4057.93575
528.537	4049.99901
528.836	4031.14595
529.134	3972.57225
529.432	4021.22141
529.731	4057.93575
530.029	4074.79861
530.327	4136.2675
530.625	4088.6829
530.923	3967.60626
531.221	4000.37563
531.52	4112.4788
531.818	3934.82241
532.116	3852.30091
532.413	3937.80337
532.711	3916.93415
533.009	3995.4115
533.307	4037.10005
533.605	3959.66
533.903	3906.00027
534.2	3882.13882
534.498	3900.03564
534.796	4029.16115
535.093	4094.63255
535.391	4051.98328
535.689	3967.60626
535.986	3936.80973
536.284	3946.7455
536.581	3921.90355
536.878	4047.02252
537.176	4080.74932
537.473	3981.51018
537.77	3960.65333
538.068	3994.41864
538.365	4049.99901
538.662	4028.16873
538.959	3998.39002
539.256	3982.50322
539.554	4011.29557
539.851	3995.4115
540.148	3967.60626
540.445	3992.43286
540.742	3955.68655
541.039	3942.77135
541.335	3992.43286
541.632	3967.60626
541.929	3943.76491
542.226	3965.61978
542.523	4015.26606
542.819	4050.99115
543.116	3990.44704
543.413	3976.54479
543.709	3930.84762
544.006	3942.77135
544.302	4000.37563
544.599	3997.39719
544.895	3904.01212
545.192	3852.30091
545.488	4001.36842
545.785	3954.69315
546.081	3890.09351
546.377	3948.73249
546.673	3960.65333
546.97	3945.75198
547.266	3945.75198
547.562	3949.72597
547.858	3954.69315
548.154	3883.13321
548.45	3881.14442
548.746	4049.99901
549.042	3998.39002
549.338	3872.19423
549.634	3939.7906
549.93	3950.71943
550.226	3882.13882
550.522	3902.02391
550.818	3958.66666
551.113	3992.43286
551.409	3970.58589
551.705	4008.31756
552	3986.47523
552.296	3982.50322
552.592	3929.85389
552.887	3819.46484
553.183	3941.77778
553.478	3948.73249
553.774	3868.216
554.069	3993.42576
554.364	4054.95957
554.66	3901.02978
554.955	3770.68018
555.25	3790.59636
555.546	3835.38725
555.841	3849.31644
556.136	3878.16115
556.431	3901.02978
556.726	3806.52525
557.021	3718.87163
557.316	3731.82737
557.611	3764.70423
557.906	3869.21058
558.201	3840.36227
558.496	3741.79169
558.791	3790.59636
559.086	3848.32158
559.381	3831.40698
559.675	3801.54786
559.97	3864.23756
560.265	3949.72597
560.56	3856.28001
560.854	3774.66387
561.149	3781.63478
561.443	3734.81681
561.738	3631.10744
562.032	3666.02701
562.327	3750.75836
562.621	3636.09704
562.916	3631.10744
563.21	3718.87163
563.504	3676.99808
563.799	3708.90403
564.093	3683.97876
564.387	3575.19916
564.681	3617.13465
564.976	3657.04939
565.27	3618.1328
565.564	3629.1115
565.858	3652.06131
566.152	3620.12906
566.446	3634.10125
566.74	3579.19412
567.034	3447.23648
567.328	3507.24894
567.622	3690.95874
567.916	3606.15403
568.209	3547.22786
568.503	3601.16225
568.797	3494.25074
569.091	3494.25074
569.384	3481.25005
569.678	3450.23836
569.972	3493.25077
570.265	3467.24652
570.559	3377.1549
570.852	3431.2242
571.146	3397.18558
571.439	3412.20472
571.733	3468.24687
572.026	3383.16472
572.319	3463.24498
572.613	3508.2487
572.906	3469.2472
573.199	3509.24845
573.492	3503.24976
573.786	3397.18558
574.079	3509.24845
574.372	3485.25052
574.665	3344.09137
574.958	3391.17699
575.251	3319.03255
575.544	3261.86404
575.837	3363.12991
576.13	3396.18419
576.423	3353.11029
576.716	3268.88731
577.009	3278.9193
577.301	3385.16788
577.594	3343.08919
577.887	3264.8741
578.18	3290.95575
578.472	3342.087
578.765	3392.17846
579.057	3316.02488
579.35	3276.91302
579.643	3330.05957
579.935	3353.11029
580.228	3317.02745
580.52	3337.07583
580.813	3267.88403
581.105	3162.45807
581.397	3265.87742
581.69	3301.9873
581.982	3345.09353
582.274	3379.15823
582.566	3263.87076
582.859	3169.49148
583.151	3203.64359
583.443	3218.70533
583.735	3321.0376
584.027	3343.08919
584.319	3211.67693
584.611	3155.42395
584.903	3124.26427
585.195	3164.46769
585.487	3164.46769
585.779	3109.18201
586.071	3146.37903
586.363	3194.60497
586.654	3219.70933
586.946	3206.6562
587.238	3160.44839
587.529	3180.54254
587.821	3126.27499
588.113	3124.26427
588.404	3196.61365
588.696	3133.31207
588.987	3121.24808
589.279	3234.76755
589.57	3180.54254
589.862	3094.09649
590.153	3143.36379
590.445	3145.37396
590.736	3144.36888
591.027	3177.52879
591.319	3160.44839
591.61	3113.20426
591.901	3014.5927
592.192	2999.48696
592.484	3110.18759
592.775	3127.28033
593.066	3117.22629
593.357	3189.583
593.648	3072.97131
593.939	2953.14282
594.23	2968.25832
594.521	2981.35586
594.812	2974.30364
595.103	3013.58575
595.393	3114.20979
595.684	3069.95291
595.975	3002.50837
596.266	2986.39274
596.557	3031.70866
596.847	2956.16617
597.138	2876.50907
597.429	2837.15271
597.719	2881.55324
598.01	2895.67507
598.3	2769.49183
598.591	2779.59434
598.881	2949.11148
599.172	2941.04813
599.462	2874.49131
599.753	2855.31979
600.043	2774.54326
600.333	2760.39841
600.624	2786.6653
600.914	2797.77545
601.204	2754.33552
601.494	2728.05742
601.785	2731.08997
602.075	2799.79531
602.365	2738.16546
602.655	2661.31099
602.945	2716.93704
603.235	2754.33552
603.525	2686.60052
603.815	2655.24027
604.105	2697.7253
604.395	2748.27215
604.685	2711.88178
604.975	2749.28275
605.265	2811.91327
605.554	2700.75905
605.844	2663.33445
606.134	2663.33445
606.424	2667.38123
606.713	2619.81837
607.003	2586.40595
607.293	2675.47415
607.582	2728.05742
607.872	2692.66878
608.161	2605.64513
608.451	2547.91363
608.74	2585.39324
609.03	2596.53242
609.319	2605.64513
609.608	2589.44403
609.898	2537.78099
610.187	2568.17506
610.476	2531.70079
610.766	2493.18225
611.055	2589.44403
611.344	2533.72758
611.633	2474.93024
611.922	2530.68738
612.211	2489.1266
612.501	2535.75431
612.79	2617.79378
613.079	2555.00571
613.368	2487.0987
613.657	2502.30672
613.946	2508.38913
614.234	2504.33424
614.523	2523.59315
614.812	2575.26535
615.101	2557.03191
615.39	2569.188
615.679	2601.59517
615.967	2608.68247
616.256	2631.96483
616.545	2536.76766
616.833	2492.16836
617.122	2507.37542
617.411	2515.48469
617.699	2492.16836
617.988	2437.39942
618.276	2481.0147
618.565	2480.00065
618.853	2497.23769
619.141	2560.0711
619.43	2520.55258
619.718	2560.0711
620.007	2607.67003
620.295	2534.74095
620.583	2451.60229
620.871	2450.58788
621.16	2480.00065
621.448	2452.61669
621.736	2565.13617
622.024	2522.57964
622.312	2406.95645
622.6	2477.97252
622.888	2485.07075
623.176	2492.16836
623.464	2485.07075
623.752	2393.76102
624.04	2427.25301
624.328	2464.78847
624.616	2376.5023
624.904	2358.22446
625.192	2385.63972
625.479	2396.80631
625.767	2344.0056
626.055	2359.24
626.343	2397.82138
626.63	2358.22446
626.918	2380.5635
627.206	2339.94262
627.493	2204.73708
627.781	2209.8239
628.068	2272.87518
628.356	2283.04034
628.643	2303.367
628.931	2352.13096
629.218	2310.48017
629.505	2225.08254
629.793	2276.94139
630.08	2299.30206
630.367	2194.56251
630.655	2221.01384
630.942	2244.40622
631.229	2264.74216
631.516	2214.91042
631.804	2145.70763
632.091	2197.61501
632.378	2182.35143
632.665	2283.04034
632.952	2305.39939
633.239	2195.58002
633.526	2133.48951
633.813	2147.74381
634.1	2216.94494
634.387	2150.79799
634.674	2178.28068
634.961	2193.54499
635.247	2145.70763
635.534	2141.63512
635.821	2142.65327
636.108	2168.10294
636.394	2191.50991
636.681	2123.3064
636.968	2034.66143
637.255	2045.87458
637.541	2101.91788
637.828	2070.33443
638.114	1951.02469
638.401	2045.87458
638.687	2118.21438
638.974	2064.22014
639.26	2102.9365
639.547	2206.77184
639.833	2134.50776
640.119	2050.97097
640.406	2045.87458
640.692	2029.56405
640.978	2124.32477
641.265	2128.39811
641.551	2022.42718
641.837	2022.42718
642.123	2014.27002
642.409	1995.91347
642.696	2047.91318
642.982	2071.35344
643.268	2085.61822
643.554	2056.06705
643.84	2125.34312
644.126	2085.61822
644.412	2094.78716
644.698	2201.68484
644.984	2197.61501
645.269	2137.56241
645.555	2100.89924
645.841	2199.64995
646.127	2152.83405
646.413	2158.94194
646.698	2245.42313
646.984	2230.16815
647.27	2230.16815
647.556	2252.54118
647.841	2306.41557
648.127	2350.09969
648.412	2355.17776
648.698	2371.42552
648.984	2395.79123
649.269	2400.86652
649.554	2423.1941
649.84	2416.09052
650.125	2462.75996
650.411	2504.33424
650.696	2396.80631
650.982	2402.89655
651.267	2448.55902
651.552	2410.00126
651.837	2376.5023
652.123	2392.7459
652.408	2337.91106
652.693	2293.20428
652.978	2289.13885
653.263	2263.72548
653.549	2334.86363
653.834	2315.56064
654.119	2194.56251
654.404	2166.06725
654.689	2228.13394
654.974	2257.62514
655.259	2229.15105
655.544	2294.22061
655.828	2325.72066
656.113	2301.33455
656.398	2348.06838
656.683	2476.95844
656.968	1750.75678
657.253	773.07418
657.537	613.86746
657.822	577.81408
658.107	560.81866
658.391	551.25029
658.676	564.00676
658.961	578.87566
659.245	552.31374
659.53	544.86793
659.814	558.69289
660.099	579.93717
660.383	604.33193
660.668	604.33193
