Data from sample_5_A_12Oclock_ST026791__121__22930.txt Node

Date: Tue Aug 19 16:33:38 AEST 2025
User: mathewyoussef
Spectrometer: ST02679
Trigger mode: 0
Integration Time (sec): 6.653700E-1
Scans to average: 1
Nonlinearity correction enabled: true
Boxcar width: 0
Storing dark spectrum: false
XAxis mode: Wavelengths
Number of Pixels in Spectrum: 1516
>>>>>Begin Spectral Data<<<<<
187.304	587.3657
187.653	622.33876
188.002	631.86373
188.351	605.39171
188.7	601.15215
189.048	610.68958
189.397	651.95411
189.746	633.97964
190.094	614.92662
190.443	603.27207
190.791	575.69069
191.14	610.68958
191.488	614.92662
191.837	612.80824
192.185	590.54827
192.533	571.44303
192.881	620.22135
193.229	609.63015
193.577	605.39171
193.925	612.80824
194.273	582.05997
194.621	600.09208
194.969	610.68958
195.317	602.21215
195.664	628.68935
196.012	627.63109
196.359	577.81408
196.707	592.66961
197.054	626.57276
197.402	601.15215
197.749	588.42663
198.096	608.57064
198.443	619.16254
198.791	580.99861
199.138	558.69289
199.485	583.12126
199.832	602.21215
200.179	605.39171
200.525	587.3657
200.872	575.69069
201.219	595.8511
201.566	631.86373
201.912	613.86746
202.259	584.18248
202.605	605.39171
202.952	617.04472
203.298	619.16254
203.644	625.51436
203.991	594.79068
204.337	585.24363
204.683	606.45143
205.029	586.3047
205.375	556.56681
205.721	613.86746
206.067	643.49793
206.413	615.9857
206.759	590.54827
207.104	566.13178
207.45	590.54827
207.796	604.33193
208.141	608.57064
208.487	629.74755
208.832	611.74894
209.177	575.69069
209.523	601.15215
209.868	615.9857
210.213	596.91145
210.558	590.54827
210.903	575.69069
211.248	571.44303
211.593	609.63015
211.938	592.66961
212.283	588.42663
212.628	630.80567
212.973	629.74755
213.317	585.24363
213.662	578.87566
214.007	605.39171
214.351	596.91145
214.696	589.48748
215.04	574.62889
215.384	584.18248
215.729	594.79068
216.073	591.60898
216.417	615.9857
216.761	620.22135
217.105	635.0375
217.449	614.92662
217.793	580.99861
218.137	595.8511
218.481	573.56701
218.824	595.8511
219.168	610.68958
219.512	586.3047
219.855	583.12126
220.199	614.92662
220.542	624.4559
220.886	607.51107
221.229	604.33193
221.572	578.87566
221.916	596.91145
222.259	609.63015
222.602	618.10366
222.945	601.15215
223.288	575.69069
223.631	591.60898
223.974	586.3047
224.317	584.18248
224.659	625.51436
225.002	625.51436
225.345	591.60898
225.687	600.09208
226.03	622.33876
226.372	624.4559
226.715	613.86746
227.057	606.45143
227.4	601.15215
227.742	626.57276
228.084	619.16254
228.426	597.97173
228.768	611.74894
229.11	629.74755
229.452	613.86746
229.794	566.13178
230.136	574.62889
230.478	602.21215
230.82	594.79068
231.161	559.75581
231.503	610.68958
231.845	660.40609
232.186	665.68648
232.528	647.72654
232.869	608.57064
233.21	591.60898
233.552	577.81408
233.893	608.57064
234.234	593.73018
234.575	575.69069
234.916	593.73018
235.257	614.92662
235.598	609.63015
235.939	603.27207
236.28	610.68958
236.621	608.57064
236.961	601.15215
237.302	622.33876
237.643	609.63015
237.983	587.3657
238.324	637.15301
238.664	674.13176
239.005	632.92172
239.345	580.99861
239.685	604.33193
240.025	617.04472
240.366	613.86746
240.706	614.92662
241.046	619.16254
241.386	600.09208
241.726	592.66961
242.066	587.3657
242.405	538.48278
242.745	571.44303
243.085	594.79068
243.425	573.56701
243.764	606.45143
244.104	664.63053
244.443	670.96526
244.783	602.21215
245.122	561.88144
245.461	569.31875
245.801	576.75242
246.14	606.45143
246.479	623.39736
246.818	590.54827
247.157	607.51107
247.496	631.86373
247.835	609.63015
248.174	571.44303
248.513	579.93717
248.852	632.92172
249.19	619.16254
249.529	578.87566
249.868	594.79068
250.206	615.9857
250.545	603.27207
250.883	573.56701
251.221	568.25651
251.56	593.73018
251.898	584.18248
252.236	611.74894
252.574	622.33876
252.912	574.62889
253.25	583.12126
253.588	587.3657
253.926	595.8511
254.264	599.03194
254.602	567.19418
254.94	589.48748
255.278	586.3047
255.615	554.44043
255.953	557.62989
256.29	603.27207
256.628	596.91145
256.965	568.25651
257.303	577.81408
257.64	603.27207
257.977	609.63015
258.314	580.99861
258.652	593.73018
258.989	608.57064
259.326	578.87566
259.663	570.38093
260	592.66961
260.337	580.99861
260.673	589.48748
261.01	592.66961
261.347	575.69069
261.684	589.48748
262.02	592.66961
262.357	578.87566
262.693	574.62889
263.03	595.8511
263.366	599.03194
263.702	575.69069
264.039	582.05997
264.375	589.48748
264.711	579.93717
265.047	579.93717
265.383	604.33193
265.719	611.74894
266.055	595.8511
266.391	597.97173
266.727	583.12126
267.063	570.38093
267.399	571.44303
267.734	583.12126
268.07	603.27207
268.405	626.57276
268.741	659.34982
269.076	608.57064
269.412	556.56681
269.747	603.27207
270.082	612.80824
270.418	587.3657
270.753	605.39171
271.088	610.68958
271.423	614.92662
271.758	607.51107
272.093	587.3657
272.428	570.38093
272.763	572.50506
273.098	589.48748
273.433	602.21215
273.767	610.68958
274.102	611.74894
274.436	583.12126
274.771	592.66961
275.106	583.12126
275.44	579.93717
275.774	607.51107
276.109	582.05997
276.443	600.09208
276.777	600.09208
277.111	582.05997
277.445	607.51107
277.78	596.91145
278.114	603.27207
278.447	620.22135
278.781	576.75242
279.115	574.62889
279.449	578.87566
279.783	600.09208
280.116	612.80824
280.45	575.69069
280.784	570.38093
281.117	587.3657
281.451	587.3657
281.784	647.72654
282.117	651.95411
282.451	595.8511
282.784	572.50506
283.117	569.31875
283.45	602.21215
283.783	601.15215
284.116	614.92662
284.449	632.92172
284.782	631.86373
285.115	641.38322
285.448	615.9857
285.781	591.60898
286.114	603.27207
286.446	602.21215
286.779	666.74236
287.111	676.24245
287.444	610.68958
287.776	612.80824
288.109	619.16254
288.441	619.16254
288.773	602.21215
289.106	625.51436
289.438	635.0375
289.77	635.0375
290.102	621.28009
290.434	570.38093
290.766	640.32577
291.098	657.23708
291.43	614.92662
291.762	604.33193
292.094	595.8511
292.425	591.60898
292.757	585.24363
293.089	627.63109
293.42	631.86373
293.752	611.74894
294.083	640.32577
294.414	649.84046
294.746	627.63109
295.077	612.80824
295.408	624.4559
295.74	664.63053
296.071	663.57452
296.402	654.06749
296.733	661.4623
297.064	644.55518
297.395	613.86746
297.726	606.45143
298.056	660.40609
298.387	692.06461
298.718	746.80966
299.049	757.31963
299.379	692.06461
299.71	680.46307
300.04	712.08617
300.371	707.87292
300.701	655.12409
301.031	720.50982
301.362	785.66903
301.692	769.92426
302.022	744.70699
302.352	752.06534
302.682	780.42211
303.012	738.39763
303.342	742.6041
303.672	766.77384
304.002	770.97429
304.332	754.16723
304.662	768.87417
304.992	777.27332
305.321	753.11631
305.651	803.49866
305.98	835.97335
306.31	811.88388
306.639	821.31335
306.969	842.25324
307.298	810.8359
307.628	795.11013
307.957	798.25622
308.286	838.06684
308.615	865.26469
308.944	886.16446
309.273	878.85163
309.602	852.71586
309.931	889.29785
310.26	886.16446
310.589	879.89646
310.918	893.47506
311.247	957.09139
311.575	974.79297
311.904	962.29894
312.233	1015.35986
312.561	993.52338
312.89	928.95289
313.218	1016.39928
313.546	1124.30788
313.875	1028.86946
314.203	917.48027
314.531	927.91014
314.859	1020.5566
315.188	1044.44986
315.516	1039.25729
315.844	1077.66165
316.172	1153.29993
316.5	1197.77808
316.827	1118.09214
317.155	1080.77346
317.483	1107.73005
317.811	1111.87527
318.138	1079.73623
318.466	1101.51126
318.794	1123.272
319.121	1153.29993
319.449	1196.74431
319.776	1152.26491
320.103	1138.8069
320.431	1232.91003
320.758	1261.81908
321.085	1185.37093
321.412	1158.47458
321.739	1168.82166
322.066	1213.28136
322.393	1201.9129
322.72	1213.28136
323.047	1245.30212
323.374	1272.13886
323.701	1262.85117
324.028	1249.43198
324.354	1303.0833
324.681	1276.26607
325.008	1318.54735
325.334	1297.92742
325.661	1255.62599
325.987	1320.60883
326.314	1387.55721
326.64	1387.55721
326.966	1372.1159
327.293	1376.23406
327.619	1367.99739
327.945	1367.99739
328.271	1385.49865
328.597	1420.48276
328.923	1405.05157
329.249	1338.12759
329.575	1280.39288
329.901	1278.32952
330.227	1413.28211
330.552	1490.3811
330.878	1382.41065
331.204	1414.31084
331.529	1436.93762
331.855	1458.52688
332.18	1527.35059
332.506	1431.79603
332.831	1327.82324
333.156	1450.30342
333.482	1549.93156
333.807	1508.86881
334.132	1510.92263
334.457	1501.67986
334.782	1506.81492
335.107	1466.74908
335.432	1433.85273
335.757	1458.52688
336.082	1508.86881
336.407	1545.82656
336.732	1504.76095
337.057	1521.19064
337.381	1493.46281
337.706	1453.38736
338.031	1508.86881
338.355	1525.29734
338.68	1500.65279
339.004	1540.69492
339.329	1642.22249
339.653	1631.9745
339.977	1590.96637
340.301	1582.76158
340.626	1571.47824
340.95	1619.67479
341.274	1613.52407
341.598	1586.86411
341.922	1637.09869
342.246	1652.4689
342.57	1663.73814
342.894	1620.69986
343.218	1656.56702
343.541	1762.01026
343.865	1714.93859
344.189	1705.72529
344.512	1712.8913
344.836	1665.78689
345.159	1627.87485
345.483	1673.98127
345.806	1734.38497
346.13	1702.65392
346.453	1660.66489
346.776	1656.56702
347.099	1768.14779
347.423	1802.91756
347.746	1688.31908
348.069	1740.52483
348.392	1804.96234
348.715	1740.52483
349.038	1748.7105
349.361	1778.37588
349.683	1778.37588
350.006	1791.67029
350.329	1796.78289
350.652	1849.93359
350.974	1829.49538
351.297	1770.19352
351.619	1836.64937
351.942	1867.30184
352.264	1858.10737
352.587	1874.45236
352.909	1889.7727
353.231	1896.92117
353.554	1869.34491
353.876	1886.70887
354.198	2006.11206
354.52	2008.15162
354.842	1925.50869
355.164	1984.69357
355.486	2005.09225
355.808	1918.36277
356.13	1917.34187
356.452	2050.97097
356.773	2048.93245
357.095	1925.50869
357.417	1946.94267
357.738	1928.57103
358.06	1977.55284
358.381	1996.93339
358.703	1956.12692
359.024	2004.07244
359.346	1992.85365
359.667	1988.77371
359.988	1967.35072
360.309	2006.11206
360.631	2008.15162
360.952	2032.62251
361.273	2083.58054
361.594	2107.01087
361.915	2118.21438
362.236	2025.48591
362.557	2061.16282
362.878	2104.97371
363.198	2058.1054
363.519	2034.66143
363.84	2082.56168
364.16	2098.86193
364.481	2121.26963
364.802	2128.39811
365.122	2165.04939
365.443	2221.01384
365.763	2178.28068
366.083	2105.9923
366.404	2038.73911
366.724	2078.48613
367.044	2147.74381
367.364	2132.47126
367.685	2119.23281
368.005	2102.9365
368.325	2083.58054
368.645	2131.45299
368.965	2115.15903
369.284	2047.91318
369.604	2144.68952
369.924	2273.89175
370.244	2303.367
370.564	2291.17159
370.883	2237.28748
371.203	2222.03103
371.522	2267.79214
371.842	2338.92685
372.161	2291.17159
372.481	2258.64189
372.8	2275.92485
373.119	2298.28579
373.439	2347.0527
373.758	2322.67278
374.077	2262.70879
374.396	2267.79214
374.715	2194.56251
375.034	2131.45299
375.353	2176.24523
375.672	2067.27734
375.991	1958.16773
376.31	1876.49524
376.629	1812.11863
376.948	1894.87882
377.266	1956.12692
377.585	2095.80587
377.904	2228.13394
378.222	2206.77184
378.541	2211.85854
378.859	2270.842
379.178	2359.24
379.496	2400.86652
379.814	2381.57877
380.133	2321.6568
380.451	2279.99092
380.769	2231.18523
381.087	2172.17418
381.405	2216.94494
381.723	2208.80656
382.041	2173.19196
382.359	2201.68484
382.677	2272.87518
382.995	2298.28579
383.313	2230.16815
383.631	2252.54118
383.949	2305.39939
384.266	2309.46404
384.584	2308.4479
384.901	2306.41557
385.219	2359.24
385.537	2334.86363
385.854	2285.07323
386.171	2322.67278
386.489	2396.80631
386.806	2411.01616
387.123	2373.45627
387.441	2370.41013
387.758	2440.4431
388.075	2412.03106
388.392	2353.14657
388.709	2374.47163
389.026	2332.83194
389.343	2346.03701
389.66	2379.54822
389.977	2373.45627
390.294	2366.34844
390.61	2426.2383
390.927	2508.38913
391.244	2443.48666
391.56	2381.57877
391.877	2368.37931
392.193	2341.97414
392.51	2432.32637
392.826	2383.60927
393.143	2323.68876
393.459	2412.03106
393.775	2374.47163
394.092	2337.91106
394.408	2367.36388
394.724	2336.89526
395.04	2387.67012
395.356	2506.36171
395.672	2576.2782
395.988	2616.78146
396.304	2599.57011
396.62	2532.71419
396.936	2584.3805
397.252	2608.68247
397.567	2608.68247
397.883	2626.90403
398.199	2582.355
398.514	2561.08414
398.83	2624.87962
399.146	2671.42779
399.461	2658.27569
399.777	2636.01323
400.092	2575.26535
400.407	2518.52546
400.723	2444.50116
401.038	2384.6245
401.353	2419.13499
401.668	2502.30672
401.983	2487.0987
402.298	2472.90199
402.613	2442.47215
402.928	2380.5635
403.243	2368.37931
403.558	2396.80631
403.873	2448.55902
404.188	2460.73141
404.503	2403.91154
404.817	2349.08404
405.132	2408.98633
405.447	2498.25152
405.761	2528.66052
406.076	2505.34798
406.39	2524.60665
406.705	2522.57964
407.019	2535.75431
407.334	2551.96633
407.648	2551.96633
407.962	2492.16836
408.276	2433.34101
408.591	2476.95844
408.905	2475.94435
409.219	2593.49461
409.533	2701.77028
409.847	2672.4394
410.161	2628.92839
410.475	2629.94055
410.789	2563.11019
411.102	2519.53903
411.416	2617.79378
411.73	2685.5891
412.044	2640.06142
412.357	2552.97947
412.671	2509.40282
412.984	2567.16211
413.298	2605.64513
413.611	2586.40595
413.925	2636.01323
414.238	2639.04939
414.552	2610.70729
414.865	2522.57964
415.178	2416.09052
415.491	2418.12018
415.804	2505.34798
416.118	2555.00571
416.431	2503.32048
416.744	2496.22385
417.057	2549.94
417.37	2553.9926
417.683	2435.37024
417.995	2442.47215
418.308	2511.43016
418.621	2476.95844
418.934	2473.91612
419.246	2550.95317
419.559	2617.79378
419.872	2585.39324
420.184	2590.45669
420.497	2618.80608
420.809	2643.09743
421.121	2585.39324
421.434	2594.50723
421.746	2631.96483
422.058	2595.51983
422.371	2567.16211
422.683	2501.29294
422.995	2397.82138
423.307	2421.16457
423.619	2560.0711
423.931	2531.70079
424.243	2496.22385
424.555	2519.53903
424.867	2494.19613
425.179	2498.25152
425.491	2471.88784
425.802	2412.03106
426.114	2424.20885
426.426	2421.16457
426.737	2380.5635
427.049	2395.79123
427.361	2485.07075
427.672	2493.18225
427.984	2415.07567
428.295	2422.17934
428.606	2423.1941
428.918	2478.98659
429.229	2621.84291
429.54	2532.71419
429.851	2352.13096
430.163	2319.6248
430.474	2313.52849
430.785	2385.63972
431.096	2404.92652
431.407	2317.59274
431.718	2351.11533
432.029	2405.9415
432.339	2382.59402
432.65	2427.25301
432.961	2423.1941
433.272	2291.17159
433.582	2375.48697
433.893	2426.2383
434.204	2351.11533
434.514	2430.29706
434.825	2416.09052
435.135	2324.70471
435.446	2392.7459
435.756	2451.60229
436.066	2450.58788
436.377	2507.37542
436.687	2495.21
436.997	2470.87368
437.307	2465.8027
437.617	2439.42855
437.927	2394.77613
438.237	2374.47163
438.547	2383.60927
438.857	2411.01616
439.167	2510.4165
439.477	2511.43016
439.787	2453.63107
440.097	2441.45763
440.407	2461.74569
440.716	2455.6598
441.026	2438.41399
441.336	2466.81692
441.645	2516.4983
441.955	2444.50116
442.264	2447.54458
442.574	2578.30385
442.883	2519.53903
443.192	2507.37542
443.502	2585.39324
443.811	2551.96633
444.12	2514.47108
444.429	2421.16457
444.739	2373.45627
445.048	2492.16836
445.357	2487.0987
445.666	2432.32637
445.975	2449.57346
446.284	2428.26771
446.593	2466.81692
446.901	2487.0987
447.21	2461.74569
447.519	2473.91612
447.828	2471.88784
448.136	2488.11266
448.445	2522.57964
448.754	2460.73141
449.062	2415.07567
449.371	2520.55258
449.679	2590.45669
449.988	2553.9926
450.296	2579.31666
450.605	2655.24027
450.913	2815.95216
451.221	3039.7618
451.529	3076.99565
451.838	3026.67498
452.146	2938.02414
452.454	2882.56203
452.762	2946.08783
453.07	2872.47349
453.378	2784.64509
453.686	2817.97152
453.994	2912.81933
454.302	2845.22752
454.609	2647.14525
454.917	2607.67003
455.225	2668.39289
455.533	2648.15718
455.84	2573.23962
456.148	2561.08414
456.455	2508.38913
456.763	2538.79431
457.07	2784.64509
457.378	2818.98118
457.685	2619.81837
457.993	2608.68247
458.3	2631.96483
458.607	2636.01323
458.915	2730.07914
459.222	2816.96184
459.529	2838.16211
459.836	2850.27383
460.143	2724.01383
460.45	2631.96483
460.757	2662.32273
461.064	2694.69143
461.371	2794.74557
461.678	2803.83485
461.985	2797.77545
462.292	2862.38356
462.598	2887.60579
462.905	2970.27349
463.212	3106.16516
463.518	3111.19316
463.825	3093.09067
464.131	3345.09353
464.438	3506.24917
464.744	3343.08919
465.051	3277.91617
465.357	3352.10824
465.664	3273.90349
465.97	3126.27499
466.276	3086.04955
466.582	3070.95906
466.889	3019.62723
467.195	3094.09649
467.501	3251.82955
467.807	3412.20472
468.113	3604.15736
468.419	3790.59636
468.725	3914.94629
469.031	4014.27346
469.337	4199.66955
469.642	4136.2675
469.948	3997.39719
470.254	4010.30291
470.56	3831.40698
470.865	3628.11351
471.171	3512.24759
471.477	3446.23582
471.782	3380.15987
472.088	3302.99008
472.393	3365.13365
472.698	3256.84698
473.004	3099.12536
473.309	3194.60497
473.614	3271.89706
473.92	3352.10824
474.225	3427.22054
474.53	3447.23648
474.835	3465.24578
475.14	3361.1261
475.445	3238.78252
475.75	3184.56067
476.055	3115.2153
476.36	3025.6682
476.665	2924.91873
476.97	2954.15061
477.275	3024.66141
477.58	3028.6885
477.885	3032.71535
478.189	2896.68366
478.494	2880.54444
478.799	2907.77731
479.103	2840.18087
479.408	2841.19022
479.712	2832.10551
480.017	2903.74345
480.321	3004.52257
480.625	3044.79455
480.93	3141.35356
481.234	3224.7291
481.538	3284.93779
481.843	3380.15987
482.147	3497.25054
482.451	3555.22083
482.755	3678.99263
483.059	3724.8515
483.363	3641.08627
483.667	3662.0371
483.971	3707.90719
484.275	3715.8815
484.579	3701.92586
484.883	3744.78071
485.187	3830.41188
485.49	3820.46009
485.794	3656.0518
486.098	3633.10333
486.401	3699.93196
486.705	3638.09278
487.009	3594.17316
487.312	3726.84468
487.616	3821.45533
487.919	3650.06598
488.222	3536.236
488.526	3590.17907
488.829	3670.01669
489.132	3705.91347
489.436	3672.01145
489.739	3658.04696
490.042	3673.0088
490.345	3688.96453
490.648	3716.87822
490.951	3731.82737
491.254	3791.59202
491.557	3799.5568
491.86	3768.68825
492.163	3924.88503
492.466	4051.98328
492.769	4149.15008
493.072	4186.79502
493.375	4239.27093
493.677	4296.65996
493.98	4281.82165
494.283	4305.56174
494.585	4223.43264
494.888	4141.22259
495.19	4086.69958
495.493	4054.95957
495.795	3975.55168
496.098	3962.63995
496.4	4007.32487
496.702	3857.27476
497.005	3858.26948
497.307	3998.39002
497.609	3910.97042
497.911	3865.23219
498.213	3856.28001
498.515	3795.57452
498.818	3848.32158
499.12	3906.00027
499.422	3875.17775
499.723	3834.3922
500.025	3932.83504
500.327	3896.05895
500.629	3811.50229
500.931	3819.46484
501.233	3830.41188
501.534	3927.86639
501.836	3941.77778
502.138	3954.69315
502.439	4002.3612
502.741	3926.87261
503.042	3879.15559
503.344	3944.75845
503.645	4061.90381
503.947	4053.96749
504.248	3947.739
504.55	4018.2438
504.851	4134.28538
505.152	4028.16873
505.453	3974.55855
505.755	4094.63255
506.056	4053.96749
506.357	3984.48925
506.658	4034.12306
506.959	4067.85552
507.26	4158.06757
507.561	4158.06757
507.862	4081.74106
508.163	4104.54764
508.464	4090.66617
508.764	4148.15919
509.065	4138.24957
509.366	4094.63255
509.667	4126.35641
509.967	4072.81493
510.268	4082.73279
510.569	4128.33873
510.869	4151.13183
511.17	4051.98328
511.47	3991.43996
511.771	4026.18385
512.071	4100.58175
512.371	4158.06757
512.672	4100.58175
512.972	4057.93575
513.272	4064.87973
513.573	4085.7079
513.873	4053.96749
514.173	4038.09236
514.473	4114.46146
514.773	4159.05834
515.073	4099.59025
515.373	4078.7658
515.673	4065.87167
515.973	4045.03813
516.273	4072.81493
516.573	4083.72451
516.873	4084.71621
517.172	4101.57324
517.472	4071.82308
517.772	4056.94371
518.072	4022.21393
518.371	4071.82308
518.671	4128.33873
518.97	4058.92779
519.27	4114.46146
519.569	4094.63255
519.869	3960.65333
520.168	3994.41864
520.468	4057.93575
520.767	4049.00686
521.066	4008.31756
521.366	4056.94371
521.665	4072.81493
521.964	4017.25123
522.263	3953.69974
522.562	3928.86014
522.861	3959.66
523.161	4005.33944
523.46	4031.14595
523.759	4004.3467
524.057	4043.05369
524.356	4112.4788
524.655	4023.20642
524.954	3937.80337
525.253	4048.0147
525.552	4138.24957
525.85	4104.54764
526.149	4034.12306
526.448	4009.31025
526.746	3967.60626
527.045	3957.6733
527.344	4124.37404
527.642	4232.34205
527.941	4129.32987
528.239	4050.99115
528.537	4018.2438
528.836	4069.83933
529.134	4050.99115
529.432	3983.49624
529.731	4027.17629
530.029	4021.22141
530.327	4030.15356
530.625	3988.46116
530.923	3896.05895
531.221	3902.02391
531.52	3999.38283
531.818	4019.23635
532.116	3940.7842
532.413	3949.72597
532.711	3909.97642
533.009	3972.57225
533.307	4081.74106
533.605	4009.31025
533.903	4009.31025
534.2	4019.23635
534.498	3940.7842
534.796	3971.57908
535.093	4052.97539
535.391	4072.81493
535.689	4047.02252
535.986	3969.5927
536.284	3856.28001
536.581	3885.12193
536.878	4046.03033
537.176	3971.57908
537.473	3924.88503
537.77	4018.2438
538.068	3990.44704
538.365	3941.77778
538.662	3998.39002
538.959	4038.09236
539.256	3900.03564
539.554	3938.79699
539.851	4048.0147
540.148	3964.62652
540.445	3909.97642
540.742	3845.33695
541.039	3906.99433
541.335	4025.19138
541.632	4067.85552
541.929	4041.0692
542.226	3996.40435
542.523	3965.61978
542.819	3932.83504
543.116	3926.87261
543.413	3869.21058
543.709	3886.11628
544.006	3963.63324
544.302	3996.40435
544.599	4003.35396
544.895	3983.49624
545.192	3905.0062
545.488	4024.19891
545.785	4030.15356
546.081	3890.09351
546.377	3957.6733
546.673	4013.28084
546.97	3952.70632
547.266	3965.61978
547.562	4074.79861
547.858	4004.3467
548.154	3878.16115
548.45	3861.25358
548.746	3938.79699
549.042	3989.45411
549.338	3965.61978
549.634	3979.52407
549.93	3927.86639
550.226	3828.42163
550.522	3892.08205
550.818	3899.04149
551.113	3912.95838
551.409	3943.76491
551.705	3920.9097
552	3890.09351
552.296	3932.83504
552.592	3945.75198
552.887	3852.30091
553.183	3904.01212
553.478	4002.3612
553.774	3878.16115
554.069	3853.29571
554.364	3952.70632
554.66	3890.09351
554.955	3864.23756
555.25	3888.10492
555.546	3854.29049
555.841	3854.29049
556.136	3830.41188
556.431	3833.39714
556.726	3874.18326
557.021	3832.40207
557.316	3910.97042
557.611	3903.01802
557.906	3780.63898
558.201	3751.75458
558.496	3812.49766
558.791	3821.45533
559.086	3761.71606
559.381	3740.79532
559.675	3828.42163
559.97	3876.17223
560.265	3891.08779
560.56	3820.46009
560.854	3764.70423
561.149	3755.73935
561.443	3640.08845
561.738	3559.21696
562.032	3649.06829
562.327	3752.7508
562.621	3731.82737
562.916	3688.96453
563.21	3637.09492
563.504	3624.1214
563.799	3611.14544
564.093	3622.12526
564.387	3536.236
564.681	3474.24864
564.976	3562.21391
565.27	3557.21892
565.564	3523.24333
565.858	3488.25073
566.152	3438.23004
566.446	3455.2412
566.74	3489.25077
567.034	3494.25074
567.328	3545.22947
567.622	3663.0346
567.916	3616.13648
568.209	3550.22533
568.503	3530.23969
568.797	3453.24011
569.091	3442.23305
569.384	3538.23465
569.678	3542.23178
569.972	3487.25067
570.265	3485.25052
570.559	3372.1463
570.852	3416.20926
571.146	3402.19233
571.439	3360.12418
571.733	3520.24467
572.026	3508.2487
572.319	3453.24011
572.613	3465.24578
572.906	3468.24687
573.199	3519.24508
573.492	3411.20355
573.786	3300.9845
574.079	3489.25077
574.372	3578.1954
574.665	3521.24423
574.958	3481.25005
575.251	3379.15823
575.544	3284.93779
575.837	3289.95279
576.13	3345.09353
576.423	3368.13916
576.716	3325.04751
577.009	3281.92861
577.301	3350.10411
577.594	3392.17846
577.887	3246.81176
578.18	3236.77506
578.472	3374.14978
578.765	3394.18135
579.057	3266.88073
579.35	3269.89057
579.643	3292.96162
579.935	3251.82955
580.228	3288.94982
580.52	3335.07126
580.813	3328.05479
581.105	3267.88403
581.397	3260.86066
581.69	3315.02229
581.982	3273.90349
582.274	3280.92552
582.566	3345.09353
582.859	3227.74079
583.151	3162.45807
583.443	3201.63511
583.735	3393.17991
584.027	3413.20588
584.319	3259.85726
584.611	3248.81892
584.903	3201.63511
585.195	3189.583
585.487	3226.73691
585.779	3144.36888
586.071	3160.44839
586.363	3315.02229
586.654	3268.88731
586.946	3130.29626
587.238	3088.06137
587.529	3124.26427
587.821	3179.53797
588.113	3182.55163
588.404	3134.3173
588.696	3108.17641
588.987	3115.2153
589.279	3213.68511
589.57	3207.66037
589.862	3122.25349
590.153	3187.57411
590.445	3185.56516
590.736	3162.45807
591.027	3159.44353
591.319	3158.43866
591.61	3187.57411
591.901	3127.28033
592.192	3084.03767
592.484	3092.08484
592.775	3099.12536
593.066	3192.59622
593.357	3218.70533
593.648	3129.29097
593.939	3050.83337
594.23	3001.50125
594.521	2967.25072
594.812	2998.4798
595.103	3030.70195
595.393	3076.99565
595.684	3022.64778
595.975	3007.54376
596.266	3068.94675
596.557	3005.52964
596.847	2922.9023
597.138	2914.83603
597.429	2911.81095
597.719	2869.44666
598.01	2813.93274
598.3	2782.62483
598.591	2796.76551
598.881	2904.75194
599.172	2918.86928
599.462	2865.41069
599.753	2862.38356
600.043	2815.95216
600.333	2803.83485
600.624	2874.49131
600.914	2858.34721
601.204	2771.51244
601.494	2774.54326
601.785	2771.51244
602.075	2782.62483
602.365	2736.14396
602.655	2633.98905
602.945	2710.87069
603.235	2735.13319
603.525	2631.96483
603.815	2639.04939
604.105	2650.18098
604.395	2775.5535
604.685	2783.63497
604.975	2726.03565
605.265	2731.08997
605.554	2661.31099
605.844	2732.1008
606.134	2710.87069
606.424	2662.32273
606.713	2635.00115
607.003	2631.96483
607.293	2769.49183
607.582	2706.8262
607.872	2646.13332
608.161	2605.64513
608.451	2541.8342
608.74	2556.01882
609.03	2549.94
609.319	2575.26535
609.608	2595.51983
609.898	2583.36776
610.187	2609.69489
610.476	2625.89183
610.766	2553.9926
611.055	2526.63361
611.344	2566.14915
611.633	2576.2782
611.922	2562.09717
612.211	2520.55258
612.501	2561.08414
612.79	2638.03735
613.079	2600.58264
613.368	2555.00571
613.657	2557.03191
613.946	2537.78099
614.234	2468.84533
614.523	2489.1266
614.812	2599.57011
615.101	2572.22673
615.39	2625.89183
615.679	2622.85516
615.967	2524.60665
616.256	2570.20092
616.545	2549.94
616.833	2480.00065
617.122	2465.8027
617.411	2481.0147
617.699	2508.38913
617.988	2488.11266
618.276	2494.19613
618.565	2541.8342
618.853	2514.47108
619.141	2511.43016
619.43	2478.98659
619.718	2578.30385
620.007	2638.03735
620.295	2541.8342
620.583	2507.37542
620.871	2523.59315
621.16	2522.57964
621.448	2457.68848
621.736	2497.23769
622.024	2490.14053
622.312	2444.50116
622.6	2440.4431
622.888	2484.05675
623.176	2482.02873
623.464	2373.45627
623.752	2404.92652
624.04	2468.84533
624.328	2467.83113
624.616	2421.16457
624.904	2357.20891
625.192	2384.6245
625.479	2385.63972
625.767	2391.73077
626.055	2368.37931
626.343	2331.81608
626.63	2371.42552
626.918	2350.09969
627.206	2328.76843
627.493	2247.45692
627.781	2209.8239
628.068	2236.27047
628.356	2309.46404
628.643	2337.91106
628.931	2302.35078
629.218	2251.52435
629.505	2230.16815
629.793	2285.07323
630.08	2224.06538
630.367	2145.70763
630.655	2207.78921
630.942	2228.13394
631.229	2236.27047
631.516	2218.97941
631.804	2203.71967
632.091	2196.59752
632.378	2182.35143
632.665	2279.99092
632.952	2278.97442
633.239	2219.99663
633.526	2200.6674
633.813	2183.36909
634.1	2176.24523
634.387	2141.63512
634.674	2150.79799
634.961	2158.94194
635.247	2213.89314
635.534	2172.17418
635.821	2110.06652
636.108	2183.36909
636.394	2168.10294
636.681	2143.6714
636.968	2098.86193
637.255	2115.15903
637.541	2112.10356
637.828	1988.77371
638.114	2006.11206
638.401	2108.02943
638.687	2140.61696
638.974	2078.48613
639.26	2163.01362
639.547	2253.558
639.833	2147.74381
640.119	2151.81603
640.406	2121.26963
640.692	2067.27734
640.978	2149.77995
641.265	2166.06725
641.551	2009.17139
641.837	1980.61323
642.123	2091.73096
642.409	2130.43471
642.696	2131.45299
642.982	2094.78716
643.268	2044.85527
643.554	2028.54453
643.84	2110.06652
644.126	2088.67465
644.412	2118.21438
644.698	2192.52746
644.984	2192.52746
645.269	2144.68952
645.555	2077.46721
645.841	2203.71967
646.127	2216.94494
646.413	2153.85206
646.698	2170.13859
646.984	2172.17418
647.27	2229.15105
647.556	2312.5124
647.841	2313.52849
648.127	2358.22446
648.412	2404.92652
648.698	2379.54822
648.984	2416.09052
649.269	2402.89655
649.554	2457.68848
649.84	2486.08473
650.125	2461.74569
650.411	2446.53012
650.696	2380.5635
650.982	2412.03106
651.267	2402.89655
651.552	2345.02131
651.837	2353.14657
652.123	2376.5023
652.408	2354.16218
652.693	2302.35078
652.978	2279.99092
653.263	2284.05679
653.549	2370.41013
653.834	2357.20891
654.119	2213.89314
654.404	2198.63249
654.689	2296.25323
654.974	2273.89175
655.259	2234.23641
655.544	2376.5023
655.828	2392.7459
656.113	2272.87518
656.398	2347.0527
656.683	2494.19613
656.968	1771.21637
657.253	816.07526
657.537	599.03194
657.822	594.79068
658.107	589.48748
658.391	564.00676
658.676	579.93717
658.961	593.73018
659.245	584.18248
659.53	570.38093
659.814	553.37712
660.099	567.19418
660.383	582.05997
660.668	569.31875
