Data from sample_5_A_12Oclock_ST026791__15__22824.txt Node

Date: Tue Aug 19 16:31:15 AEST 2025
User: mathewyoussef
Spectrometer: ST02679
Trigger mode: 0
Integration Time (sec): 6.653700E-1
Scans to average: 1
Nonlinearity correction enabled: true
Boxcar width: 0
Storing dark spectrum: false
XAxis mode: Wavelengths
Number of Pixels in Spectrum: 1516
>>>>>Begin Spectral Data<<<<<
187.304	628.68935
187.653	656.18062
188.002	666.74236
188.351	594.79068
188.7	553.37712
189.048	566.13178
189.397	622.33876
189.746	590.54827
190.094	559.75581
190.443	603.27207
190.791	618.10366
191.14	623.39736
191.488	599.03194
191.837	591.60898
192.185	585.24363
192.533	561.88144
192.881	585.24363
193.229	586.3047
193.577	606.45143
193.925	602.21215
194.273	592.66961
194.621	619.16254
194.969	622.33876
195.317	618.10366
195.664	607.51107
196.012	596.91145
196.359	572.50506
196.707	559.75581
197.054	552.31374
197.402	577.81408
197.749	597.97173
198.096	602.21215
198.443	590.54827
198.791	556.56681
199.138	556.56681
199.485	607.51107
199.832	621.28009
200.179	595.8511
200.525	595.8511
200.872	609.63015
201.219	609.63015
201.566	641.38322
201.912	650.89731
202.259	596.91145
202.605	575.69069
202.952	577.81408
203.298	591.60898
203.644	596.91145
203.991	590.54827
204.337	597.97173
204.683	610.68958
205.029	590.54827
205.375	575.69069
205.721	620.22135
206.067	646.66949
206.413	654.06749
206.759	632.92172
207.104	579.93717
207.45	578.87566
207.796	610.68958
208.141	614.92662
208.487	604.33193
208.832	605.39171
209.177	569.31875
209.523	578.87566
209.868	594.79068
210.213	583.12126
210.558	589.48748
210.903	590.54827
211.248	589.48748
211.593	594.79068
211.938	600.09208
212.283	636.09528
212.628	628.68935
212.973	593.73018
213.317	595.8511
213.662	588.42663
214.007	585.24363
214.351	602.21215
214.696	603.27207
215.04	599.03194
215.384	594.79068
215.729	571.44303
216.073	596.91145
216.417	615.9857
216.761	607.51107
217.105	626.57276
217.449	627.63109
217.793	603.27207
218.137	619.16254
218.481	632.92172
218.824	636.09528
219.168	618.10366
219.512	603.27207
219.855	592.66961
220.199	589.48748
220.542	592.66961
220.886	622.33876
221.229	642.44061
221.572	613.86746
221.916	608.57064
222.259	617.04472
222.602	604.33193
222.945	601.15215
223.288	618.10366
223.631	599.03194
223.974	578.87566
224.317	584.18248
224.659	611.74894
225.002	614.92662
225.345	595.8511
225.687	603.27207
226.03	615.9857
226.372	600.09208
226.715	591.60898
227.057	571.44303
227.4	582.05997
227.742	625.51436
228.084	613.86746
228.426	603.27207
228.768	580.99861
229.11	585.24363
229.452	594.79068
229.794	590.54827
230.136	568.25651
230.478	561.88144
230.82	601.15215
231.161	579.93717
231.503	613.86746
231.845	642.44061
232.186	650.89731
232.528	658.29348
232.869	584.18248
233.21	585.24363
233.552	590.54827
233.893	575.69069
234.234	591.60898
234.575	591.60898
234.916	617.04472
235.257	612.80824
235.598	625.51436
235.939	628.68935
236.28	576.75242
236.621	565.06931
236.961	620.22135
237.302	643.49793
237.643	628.68935
237.983	625.51436
238.324	601.15215
238.664	623.39736
239.005	636.09528
239.345	613.86746
239.685	618.10366
240.025	614.92662
240.366	583.12126
240.706	578.87566
241.046	589.48748
241.386	578.87566
241.726	597.97173
242.066	605.39171
242.405	594.79068
242.745	611.74894
243.085	603.27207
243.425	594.79068
243.764	632.92172
244.104	678.35288
244.443	664.63053
244.783	607.51107
245.122	580.99861
245.461	593.73018
245.801	606.45143
246.14	592.66961
246.479	574.62889
246.818	587.3657
247.157	620.22135
247.496	640.32577
247.835	625.51436
248.174	583.12126
248.513	559.75581
248.852	628.68935
249.19	658.29348
249.529	623.39736
249.868	606.45143
250.206	564.00676
250.545	560.81866
250.883	593.73018
251.221	578.87566
251.56	577.81408
251.898	583.12126
252.236	584.18248
252.574	590.54827
252.912	573.56701
253.25	573.56701
253.588	571.44303
253.926	592.66961
254.264	611.74894
254.602	615.9857
254.94	605.39171
255.278	605.39171
255.615	600.09208
255.953	553.37712
256.29	557.62989
256.628	570.38093
256.965	566.13178
257.303	601.15215
257.64	644.55518
257.977	628.68935
258.314	609.63015
258.652	610.68958
258.989	607.51107
259.326	592.66961
259.663	602.21215
260	599.03194
260.337	573.56701
260.673	599.03194
261.01	597.97173
261.347	577.81408
261.684	579.93717
262.02	602.21215
262.357	590.54827
262.693	569.31875
263.03	578.87566
263.366	570.38093
263.702	550.18675
264.039	584.18248
264.375	625.51436
264.711	639.26825
265.047	625.51436
265.383	613.86746
265.719	613.86746
266.055	622.33876
266.391	653.01083
266.727	633.97964
267.063	599.03194
267.399	586.3047
267.734	595.8511
268.07	597.97173
268.405	597.97173
268.741	618.10366
269.076	602.21215
269.412	607.51107
269.747	622.33876
270.082	592.66961
270.418	597.97173
270.753	595.8511
271.088	594.79068
271.423	601.15215
271.758	575.69069
272.093	595.8511
272.428	650.89731
272.763	633.97964
273.098	595.8511
273.433	602.21215
273.767	620.22135
274.102	631.86373
274.436	600.09208
274.771	591.60898
275.106	618.10366
275.44	622.33876
275.774	601.15215
276.109	569.31875
276.443	574.62889
276.777	607.51107
277.111	613.86746
277.445	623.39736
277.78	605.39171
278.114	594.79068
278.447	601.15215
278.781	577.81408
279.115	595.8511
279.449	605.39171
279.783	594.79068
280.116	588.42663
280.45	585.24363
280.784	625.51436
281.117	650.89731
281.451	619.16254
281.784	676.24245
282.117	668.85394
282.451	579.93717
282.784	569.31875
283.117	591.60898
283.45	619.16254
283.783	578.87566
284.116	559.75581
284.449	596.91145
284.782	618.10366
285.115	628.68935
285.448	613.86746
285.781	560.81866
286.114	566.13178
286.446	612.80824
286.779	654.06749
287.111	638.21066
287.444	594.79068
287.776	602.21215
288.109	576.75242
288.441	561.88144
288.773	620.22135
289.106	665.68648
289.438	621.28009
289.77	597.97173
290.102	607.51107
290.434	594.79068
290.766	642.44061
291.098	647.72654
291.43	622.33876
291.762	635.0375
292.094	622.33876
292.425	604.33193
292.757	604.33193
293.089	623.39736
293.42	610.68958
293.752	592.66961
294.083	624.4559
294.414	623.39736
294.746	601.15215
295.077	638.21066
295.408	653.01083
295.74	678.35288
296.071	692.06461
296.402	624.4559
296.733	621.28009
297.064	638.21066
297.395	635.0375
297.726	648.78353
298.056	696.2815
298.387	716.29847
298.718	709.97967
299.049	734.19024
299.379	697.33557
299.71	684.68268
300.04	698.38958
300.371	680.46307
300.701	673.07633
301.031	726.82508
301.362	748.9121
301.692	760.47153
302.022	756.26888
302.352	749.96324
302.682	759.42095
303.012	689.9558
303.342	715.24549
303.672	717.3514
304.002	726.82508
304.332	752.06534
304.662	772.02426
304.992	779.37257
305.321	728.9297
305.651	790.91461
305.98	851.66981
306.31	807.69168
306.639	799.30481
306.969	819.21826
307.298	811.88388
307.628	826.55018
307.957	839.11351
308.286	839.11351
308.615	816.07526
308.944	839.11351
309.273	819.21826
309.602	797.20757
309.931	893.47506
310.26	892.43082
310.589	892.43082
310.918	924.78163
311.247	969.58782
311.575	975.83388
311.904	952.92463
312.233	1012.24138
312.561	981.03784
312.89	904.95872
313.218	1019.51732
313.546	1091.14401
313.875	987.28131
314.203	939.37809
314.531	944.58912
314.859	973.75202
315.188	1010.1622
315.516	1025.75241
315.844	1036.14132
316.172	1103.58432
316.5	1145.01893
316.827	1107.73005
317.155	1112.9115
317.483	1134.66494
317.811	1083.88498
318.138	1096.32804
318.466	1172.95967
318.794	1097.36475
319.121	1084.92208
319.449	1201.9129
319.776	1210.1812
320.103	1172.95967
320.431	1217.41452
320.758	1246.33463
321.085	1228.77848
321.412	1185.37093
321.739	1146.05416
322.066	1200.87923
322.393	1202.94653
322.72	1205.01372
323.047	1282.45613
323.374	1337.09726
323.701	1262.85117
324.028	1272.13886
324.354	1308.23858
324.681	1253.56143
325.008	1340.18818
325.334	1321.63953
325.661	1261.81908
325.987	1327.82324
326.314	1347.39955
326.64	1298.95864
326.966	1347.39955
327.293	1400.9358
327.619	1384.46934
327.945	1377.26354
328.271	1355.63975
328.597	1356.66968
328.923	1343.2789
329.249	1348.42965
329.575	1364.90828
329.901	1385.49865
330.227	1407.10933
330.552	1422.5399
330.878	1427.6824
331.204	1373.14547
331.529	1285.55083
331.855	1377.26354
332.18	1493.46281
332.506	1391.67408
332.831	1347.39955
333.156	1465.72137
333.482	1526.32397
333.807	1480.10755
334.132	1461.61035
334.457	1503.73394
334.782	1504.76095
335.107	1478.05261
335.432	1449.2754
335.757	1419.45415
336.082	1436.93762
336.407	1453.38736
336.732	1499.62571
337.057	1520.16392
337.381	1464.69365
337.706	1471.88734
338.031	1492.43559
338.355	1450.30342
338.68	1499.62571
339.004	1543.77396
339.329	1606.34749
339.653	1627.87485
339.977	1565.32282
340.301	1611.4737
340.626	1530.43031
340.95	1492.43559
341.274	1554.03627
341.598	1529.40376
341.922	1587.8897
342.246	1625.82493
342.57	1613.52407
342.894	1646.32124
343.218	1682.17467
343.541	1703.67773
343.865	1654.51799
344.189	1652.4689
344.512	1710.84394
344.836	1700.60627
345.159	1627.87485
345.483	1625.82493
345.806	1661.68932
346.13	1709.82024
346.453	1715.96222
346.776	1629.92471
347.099	1720.05657
347.423	1809.05173
347.746	1754.84915
348.069	1797.80537
348.392	1824.38498
348.715	1736.43165
349.038	1703.67773
349.361	1723.12719
349.683	1767.1249
350.006	1704.70152
350.329	1718.00943
350.652	1817.22985
350.974	1738.47827
351.297	1769.17066
351.619	1845.84639
351.942	1878.53807
352.264	1913.25815
352.587	1887.73016
352.909	1843.8027
353.231	1831.53945
353.554	1839.71517
353.876	1839.71517
354.198	1895.9
354.52	1941.83985
354.842	1941.83985
355.164	2058.1054
355.486	2035.68087
355.808	1867.30184
356.13	1877.51666
356.452	1975.51252
356.773	2004.07244
357.095	1919.38365
357.417	1917.34187
357.738	1957.14733
358.06	2049.95172
358.381	2014.27002
358.703	1939.79864
359.024	2014.27002
359.346	1957.14733
359.667	1898.96348
359.988	1913.25815
360.309	1947.96319
360.631	2038.73911
360.952	2114.14055
361.273	2044.85527
361.594	2033.64198
361.915	2067.27734
362.236	2007.13185
362.557	2072.37243
362.878	2137.56241
363.198	2050.97097
363.519	2011.21088
363.84	2029.56405
364.16	1976.53269
364.481	2050.97097
364.802	2067.27734
365.122	2077.46721
365.443	2166.06725
365.763	2136.54421
366.083	2077.46721
366.404	2022.42718
366.724	2074.41038
367.044	2166.06725
367.364	2154.87006
367.685	2085.61822
368.005	2010.19114
368.325	2008.15162
368.645	2029.56405
368.965	2049.95172
369.284	2114.14055
369.604	2108.02943
369.924	2130.43471
370.244	2282.02388
370.564	2247.45692
370.883	2101.91788
371.203	2237.28748
371.522	2273.89175
371.842	2275.92485
372.161	2256.60837
372.481	2184.38673
372.8	2241.3554
373.119	2281.00741
373.439	2312.5124
373.758	2271.85859
374.077	2204.73708
374.396	2200.6674
374.715	2226.09969
375.034	2228.13394
375.353	2175.22749
375.672	2040.77788
375.991	1910.19522
376.31	1830.51742
376.629	1789.62515
376.948	1790.64772
377.266	1923.46706
377.585	2087.65585
377.904	2175.22749
378.222	2208.80656
378.541	2253.558
378.859	2337.91106
379.178	2325.72066
379.496	2344.0056
379.814	2360.25553
380.133	2267.79214
380.451	2203.71967
380.769	2189.47478
381.087	2175.22749
381.405	2154.87006
381.723	2207.78921
382.041	2266.77549
382.359	2337.91106
382.677	2357.20891
382.995	2281.00741
383.313	2215.92769
383.631	2208.80656
383.949	2304.3832
384.266	2361.27104
384.584	2349.08404
384.901	2291.17159
385.219	2283.04034
385.537	2312.5124
385.854	2312.5124
386.171	2302.35078
386.489	2338.92685
386.806	2390.71563
387.123	2445.51565
387.441	2444.50116
387.758	2382.59402
388.075	2317.59274
388.392	2249.49066
388.709	2281.00741
389.026	2282.02388
389.343	2301.33455
389.66	2332.83194
389.977	2396.80631
390.294	2341.97414
390.61	2320.6408
390.927	2502.30672
391.244	2497.23769
391.56	2438.41399
391.877	2341.97414
392.193	2265.75883
392.51	2351.11533
392.826	2337.91106
393.143	2301.33455
393.459	2305.39939
393.775	2279.99092
394.092	2302.35078
394.408	2384.6245
394.724	2408.98633
395.04	2344.0056
395.356	2374.47163
395.672	2520.55258
395.988	2559.05805
396.304	2520.55258
396.62	2549.94
396.936	2608.68247
397.252	2595.51983
397.567	2609.69489
397.883	2675.47415
398.199	2645.12137
398.514	2569.188
398.83	2590.45669
399.146	2578.30385
399.461	2537.78099
399.777	2605.64513
400.092	2584.3805
400.407	2502.30672
400.723	2477.97252
401.038	2428.26771
401.353	2438.41399
401.668	2520.55258
401.983	2515.48469
402.298	2485.07075
402.613	2497.23769
402.928	2413.04594
403.243	2305.39939
403.558	2373.45627
403.873	2400.86652
404.188	2384.6245
404.503	2382.59402
404.817	2399.85148
405.132	2371.42552
405.447	2380.5635
405.761	2497.23769
406.076	2584.3805
406.39	2540.82092
406.705	2439.42855
407.019	2490.14053
407.334	2531.70079
407.648	2519.53903
407.962	2493.18225
408.276	2468.84533
408.591	2444.50116
408.905	2429.28239
409.219	2480.00065
409.533	2502.30672
409.847	2513.45745
410.161	2494.19613
410.475	2491.15445
410.789	2508.38913
411.102	2518.52546
411.416	2580.32945
411.73	2574.25249
412.044	2566.14915
412.357	2553.9926
412.671	2528.66052
412.984	2446.53012
413.298	2450.58788
413.611	2588.43135
413.925	2686.60052
414.238	2656.25209
414.552	2602.60768
414.865	2515.48469
415.178	2453.63107
415.491	2489.1266
415.804	2555.00571
416.118	2510.4165
416.431	2383.60927
416.744	2428.26771
417.057	2498.25152
417.37	2460.73141
417.683	2369.39473
417.995	2454.64544
418.308	2546.90042
418.621	2497.23769
418.934	2440.4431
419.246	2440.4431
419.559	2579.31666
419.872	2595.51983
420.184	2531.70079
420.497	2559.05805
420.809	2644.1094
421.121	2624.87962
421.434	2529.67396
421.746	2584.3805
422.058	2547.91363
422.371	2502.30672
422.683	2497.23769
422.995	2434.35563
423.307	2452.61669
423.619	2491.15445
423.931	2460.73141
424.243	2440.4431
424.555	2424.20885
424.867	2434.35563
425.179	2432.32637
425.491	2425.22358
425.802	2429.28239
426.114	2359.24
426.426	2261.69208
426.737	2276.94139
427.049	2374.47163
427.361	2437.39942
427.672	2421.16457
427.984	2366.34844
428.295	2426.2383
428.606	2435.37024
428.918	2382.59402
429.229	2541.8342
429.54	2552.97947
429.851	2365.33298
430.163	2327.75252
430.474	2365.33298
430.785	2380.5635
431.096	2358.22446
431.407	2387.67012
431.718	2345.02131
432.029	2375.48697
432.339	2341.97414
432.65	2329.78432
432.961	2355.17776
433.272	2314.54457
433.582	2380.5635
433.893	2334.86363
434.204	2305.39939
434.514	2354.16218
434.825	2344.0056
435.135	2333.84779
435.446	2396.80631
435.756	2445.51565
436.066	2491.15445
436.377	2520.55258
436.687	2488.11266
436.997	2448.55902
437.307	2429.28239
437.617	2438.41399
437.927	2393.76102
438.237	2434.35563
438.547	2496.22385
438.857	2442.47215
439.167	2490.14053
439.477	2490.14053
439.787	2472.90199
440.097	2463.77422
440.407	2451.60229
440.716	2474.93024
441.026	2485.07075
441.336	2546.90042
441.645	2528.66052
441.955	2412.03106
442.264	2443.48666
442.574	2573.23962
442.883	2541.8342
443.192	2535.75431
443.502	2592.48199
443.811	2513.45745
444.12	2468.84533
444.429	2413.04594
444.739	2373.45627
445.048	2444.50116
445.357	2443.48666
445.666	2443.48666
445.975	2483.04275
446.284	2459.71711
446.593	2427.25301
446.901	2406.95645
447.21	2402.89655
447.519	2334.86363
447.828	2349.08404
448.136	2424.20885
448.445	2438.41399
448.754	2388.6853
449.062	2380.5635
449.371	2433.34101
449.679	2497.23769
449.988	2593.49461
450.296	2633.98905
450.605	2652.20474
450.913	2851.28305
451.221	3099.12536
451.529	3046.80755
451.838	2881.55324
452.146	2831.09602
452.454	2860.36541
452.762	2918.86928
453.07	2763.42967
453.378	2664.34617
453.686	2718.95905
453.994	2843.2089
454.302	2797.77545
454.609	2622.85516
454.917	2620.83064
455.225	2662.32273
455.533	2700.75905
455.84	2643.09743
456.148	2627.91621
456.455	2557.03191
456.763	2524.60665
457.07	2632.97695
457.378	2694.69143
457.685	2632.97695
457.993	2629.94055
458.3	2687.61193
458.607	2688.62333
458.915	2721.99196
459.222	2791.71557
459.529	2748.27215
459.836	2762.41926
460.143	2698.73657
460.45	2560.0711
460.757	2616.78146
461.064	2709.85959
461.371	2812.92301
461.678	2768.4815
461.985	2727.04655
462.292	2782.62483
462.598	2879.53562
462.905	2982.36327
463.212	3020.6341
463.518	3096.10808
463.825	3132.30681
464.131	3333.06662
464.438	3363.12991
464.744	3186.56964
465.051	3155.42395
465.357	3166.47725
465.664	3152.4091
465.97	3092.08484
466.276	3095.10229
466.582	3046.80755
466.889	2966.24311
467.195	3046.80755
467.501	3238.78252
467.807	3478.24953
468.113	3597.16857
468.419	3730.83086
468.725	3862.24826
469.031	3956.67993
469.337	4100.58175
469.642	4034.12306
469.948	3916.93415
470.254	3898.04733
470.56	3755.73935
470.865	3539.23395
471.171	3502.24993
471.477	3505.24938
471.782	3336.07355
472.088	3228.74466
472.393	3343.08919
472.698	3276.91302
473.004	3088.06137
473.309	3201.63511
473.614	3338.07809
473.92	3341.0848
474.225	3381.1615
474.53	3342.087
474.835	3334.06895
475.14	3365.13365
475.445	3341.0848
475.75	3265.87742
476.055	3163.46289
476.36	3065.92818
476.665	2915.84436
476.97	2883.57081
477.275	2952.135
477.58	2994.45101
477.885	2990.42199
478.189	2846.23681
478.494	2813.93274
478.799	2873.48241
479.103	2875.5002
479.408	2817.97152
479.712	2805.85453
480.017	2922.9023
480.321	2979.34101
480.625	2922.9023
480.93	3012.57879
481.234	3193.6006
481.538	3225.73301
481.843	3325.04751
482.147	3492.25079
482.451	3505.24938
482.755	3581.19152
483.059	3642.08408
483.363	3665.02956
483.667	3732.82386
483.971	3699.93196
484.275	3637.09492
484.579	3715.8815
484.883	3791.59202
485.187	3758.72777
485.49	3812.49766
485.794	3784.6221
486.098	3689.96165
486.401	3673.0088
486.705	3627.11551
487.009	3538.23465
487.312	3624.1214
487.616	3676.99808
487.919	3557.21892
488.222	3537.23533
488.526	3536.236
488.829	3589.18051
489.132	3671.01408
489.436	3604.15736
489.739	3598.16701
490.042	3689.96165
490.345	3652.06131
490.648	3629.1115
490.951	3669.0193
491.254	3680.98713
491.557	3775.65976
491.86	3832.40207
492.163	3961.64665
492.466	3965.61978
492.769	3950.71943
493.072	4064.87973
493.375	4144.19549
493.677	4294.68167
493.98	4396.5068
494.283	4344.12572
494.585	4193.72771
494.888	4116.44408
495.19	4119.41791
495.493	4065.87167
495.795	3914.94629
496.098	3877.1667
496.4	3886.11628
496.702	3799.5568
497.005	3821.45533
497.307	3950.71943
497.609	3850.31128
497.911	3753.74699
498.213	3770.68018
498.515	3785.61784
498.818	3828.42163
499.12	3839.36729
499.422	3841.35723
499.723	3831.40698
500.025	3889.09922
500.327	3790.59636
500.629	3758.72777
500.931	3817.47429
501.233	3830.41188
501.534	3863.24292
501.836	3759.72388
502.138	3856.28001
502.439	4011.29557
502.741	3971.57908
503.042	3882.13882
503.344	3888.10492
503.645	4105.53907
503.947	4095.62412
504.248	3967.60626
504.55	4019.23635
504.851	4034.12306
505.152	4013.28084
505.453	3996.40435
505.755	4046.03033
506.056	4046.03033
506.357	3949.72597
506.658	3938.79699
506.959	3972.57225
507.26	4059.91981
507.561	4023.20642
507.862	3955.68655
508.163	4068.84743
508.464	4091.65778
508.764	4088.6829
509.065	4037.10005
509.366	4104.54764
509.667	4169.95603
509.967	4052.97539
510.268	4095.62412
510.569	4071.82308
510.869	3963.63324
511.17	4001.36842
511.47	4140.23159
511.771	4165.00272
512.071	4144.19549
512.371	4129.32987
512.672	4044.04592
512.972	4049.00686
513.272	4088.6829
513.573	4036.10774
513.873	4052.97539
514.173	4047.02252
514.473	3974.55855
514.773	4098.59874
515.073	4106.5305
515.373	4105.53907
515.673	4118.42665
515.973	3998.39002
516.273	4115.45278
516.573	4140.23159
516.873	4015.26606
517.172	3991.43996
517.472	4027.17629
517.772	4068.84743
518.072	4073.80678
518.371	4094.63255
518.671	4083.72451
518.97	4065.87167
519.27	4089.67454
519.569	4141.22259
519.869	4184.81414
520.168	4115.45278
520.468	4020.22889
520.767	4014.27346
521.066	4004.3467
521.366	3978.53099
521.665	4007.32487
521.964	3971.57908
522.263	3891.08779
522.562	4018.2438
522.861	4065.87167
523.161	4026.18385
523.46	4080.74932
523.759	4036.10774
524.057	4028.16873
524.356	4021.22141
524.655	3962.63995
524.954	3912.95838
525.253	3933.82874
525.552	4048.0147
525.85	4038.09236
526.149	4061.90381
526.448	4047.02252
526.746	3910.97042
527.045	3903.01802
527.344	4063.88777
527.642	4179.86174
527.941	4139.24059
528.239	3982.50322
528.537	3897.05315
528.836	3931.84134
529.134	3919.91583
529.432	4023.20642
529.731	4057.93575
530.029	3994.41864
530.327	4020.22889
530.625	3996.40435
530.923	3978.53099
531.221	4067.85552
531.52	4084.71621
531.818	3973.5654
532.116	3953.69974
532.413	3996.40435
532.711	4024.19891
533.009	4079.75757
533.307	4074.79861
533.605	3945.75198
533.903	3905.0062
534.2	3890.09351
534.498	3878.16115
534.796	3985.48225
535.093	4033.13071
535.391	3999.38283
535.689	3987.46821
535.986	4041.0692
536.284	3952.70632
536.581	3910.97042
536.878	4077.77402
537.176	4042.06145
537.473	3931.84134
537.77	3926.87261
538.068	3953.69974
538.365	3995.4115
538.662	3952.70632
538.959	3911.96441
539.256	3924.88503
539.554	3956.67993
539.851	3978.53099
540.148	3949.72597
540.445	3906.00027
540.742	3838.3723
541.039	3771.67613
541.335	3924.88503
541.632	3967.60626
541.929	3912.95838
542.226	3976.54479
542.523	3968.59949
542.819	3906.00027
543.116	3897.05315
543.413	3918.92195
543.709	3921.90355
544.006	3954.69315
544.302	4025.19138
544.599	4005.33944
544.895	3957.6733
545.192	3952.70632
545.488	4008.31756
545.785	3955.68655
546.081	3831.40698
546.377	3911.96441
546.673	3951.71288
546.97	3912.95838
547.266	3904.01212
547.562	3932.83504
547.858	3906.00027
548.154	3915.94023
548.45	3923.89122
548.746	3921.90355
549.042	3929.85389
549.338	3917.92805
549.634	3903.01802
549.93	3866.22681
550.226	3764.70423
550.522	3798.56125
550.818	3850.31128
551.113	3861.25358
551.409	3991.43996
551.705	3933.82874
552	3799.5568
552.296	3860.2589
552.592	3944.75845
552.887	3821.45533
553.183	3872.19423
553.478	3898.04733
553.774	3744.78071
554.069	3780.63898
554.364	3854.29049
554.66	3861.25358
554.955	3836.38228
555.25	3809.51152
555.546	3789.60068
555.841	3809.51152
556.136	3806.52525
556.431	3841.35723
556.726	3791.59202
557.021	3650.06598
557.316	3729.83433
557.611	3813.49301
557.906	3871.19969
558.201	3897.05315
558.496	3919.91583
558.791	3866.22681
559.086	3755.73935
559.381	3792.58767
559.675	3800.55234
559.97	3836.38228
560.265	3816.47899
560.56	3716.87822
560.854	3707.90719
561.149	3657.04939
561.443	3598.16701
561.738	3574.20038
562.032	3607.15234
562.327	3648.07059
562.621	3660.04206
562.916	3668.02188
563.21	3675.00347
563.504	3671.01408
563.799	3616.13648
564.093	3622.12526
564.387	3562.21391
564.681	3542.23178
564.976	3592.17614
565.27	3574.20038
565.564	3631.10744
565.858	3639.09062
566.152	3520.24467
566.446	3504.24958
566.74	3490.25079
567.034	3471.24782
567.328	3467.24652
567.622	3600.16385
567.916	3570.20512
568.209	3509.24845
568.503	3584.1875
568.797	3452.23954
569.091	3435.22763
569.384	3445.23515
569.678	3361.1261
569.972	3362.12801
570.265	3463.24498
570.559	3383.16472
570.852	3417.21036
571.146	3503.24976
571.439	3456.24173
571.733	3478.24953
572.026	3399.18832
572.319	3336.07355
572.613	3340.08258
572.906	3378.15657
573.199	3489.25077
573.492	3448.23712
573.786	3413.20588
574.079	3514.24695
574.372	3458.24273
574.665	3362.12801
574.958	3408.19994
575.251	3330.05957
575.544	3273.90349
575.837	3360.12418
576.13	3338.07809
576.423	3332.06429
576.716	3279.92242
577.009	3248.81892
577.301	3370.14276
577.594	3370.14276
577.887	3291.95869
578.18	3398.18696
578.472	3420.21357
578.765	3350.10411
579.057	3261.86404
579.35	3241.79359
579.643	3256.84698
579.935	3240.78992
580.228	3264.8741
580.52	3268.88731
580.813	3274.90668
581.105	3189.583
581.397	3164.46769
581.69	3226.73691
581.982	3182.55163
582.274	3220.71331
582.566	3320.03508
582.859	3262.86741
583.151	3220.71331
583.443	3200.63085
583.735	3330.05957
584.027	3348.09992
584.319	3220.71331
584.611	3198.62228
584.903	3199.62657
585.195	3196.61365
585.487	3149.39413
585.779	3218.70533
586.071	3233.76377
586.363	3212.68103
586.654	3225.73301
586.946	3173.51025
587.238	3178.53338
587.529	3221.71728
587.821	3228.74466
588.113	3170.49619
588.404	3114.20979
588.696	3028.6885
588.987	3021.64095
589.279	3149.39413
589.57	3135.32253
589.862	3141.35356
590.153	3091.079
590.445	3005.52964
590.736	3058.88434
591.027	3131.30155
591.319	3198.62228
591.61	3146.37903
591.901	3038.75521
592.192	3063.91572
592.484	3069.95291
592.775	3042.78149
593.066	3087.05547
593.357	3275.90986
593.648	3236.77506
593.939	3027.68175
594.23	3005.52964
594.521	2959.1894
594.812	3016.60656
595.103	3081.01975
595.393	3023.6546
595.684	2984.37803
595.975	2995.45823
596.266	2962.2125
596.557	3018.62036
596.847	2985.38539
597.138	2909.79416
597.429	2855.31979
597.719	2899.70937
598.01	2880.54444
598.3	2745.24028
598.591	2853.30145
598.881	2967.25072
599.172	2902.73495
599.462	2840.18087
599.753	2817.97152
600.043	2808.88396
600.333	2799.79531
600.624	2785.6552
600.914	2835.13387
601.204	2810.90352
601.494	2781.61468
601.785	2713.90393
602.075	2727.04655
602.365	2766.46081
602.655	2684.57767
602.945	2656.25209
603.235	2701.77028
603.525	2749.28275
603.815	2720.981
604.105	2726.03565
604.395	2714.91498
604.685	2623.8674
604.975	2670.41617
605.265	2666.36956
605.554	2581.34224
605.844	2635.00115
606.134	2631.96483
606.424	2609.69489
606.713	2570.20092
607.003	2537.78099
607.293	2678.50877
607.582	2746.25092
607.872	2692.66878
608.161	2636.01323
608.451	2628.92839
608.74	2635.00115
609.03	2551.96633
609.319	2545.8872
609.608	2514.47108
609.898	2508.38913
610.187	2581.34224
610.476	2523.59315
610.766	2517.51189
611.055	2515.48469
611.344	2538.79431
611.633	2561.08414
611.922	2531.70079
612.211	2507.37542
612.501	2559.05805
612.79	2590.45669
613.079	2535.75431
613.368	2501.29294
613.657	2455.6598
613.946	2458.7028
614.234	2503.32048
614.523	2543.86073
614.812	2576.2782
615.101	2551.96633
615.39	2535.75431
615.679	2562.09717
615.967	2570.20092
616.256	2641.07343
616.545	2546.90042
616.833	2426.2383
617.122	2442.47215
617.411	2497.23769
617.699	2529.67396
617.988	2510.4165
618.276	2533.72758
618.565	2458.7028
618.853	2358.22446
619.141	2395.79123
619.43	2449.57346
619.718	2524.60665
620.007	2574.25249
620.295	2475.94435
620.583	2483.04275
620.871	2586.40595
621.16	2502.30672
621.448	2393.76102
621.736	2505.34798
622.024	2542.84747
622.312	2464.78847
622.6	2400.86652
622.888	2403.91154
623.176	2472.90199
623.464	2470.87368
623.752	2450.58788
624.04	2473.91612
624.328	2398.83644
624.616	2294.22061
624.904	2355.17776
625.192	2381.57877
625.479	2371.42552
625.767	2407.9714
626.055	2417.10536
626.343	2367.36388
626.63	2321.6568
626.918	2284.05679
627.206	2316.5767
627.493	2317.59274
627.781	2266.77549
628.068	2253.558
628.356	2247.45692
628.643	2211.85854
628.931	2196.59752
629.218	2218.97941
629.505	2222.03103
629.793	2243.38929
630.08	2234.23641
630.367	2193.54499
630.655	2216.94494
630.942	2170.13859
631.229	2166.06725
631.516	2201.68484
631.804	2164.03151
632.091	2156.90603
632.378	2221.01384
632.665	2310.48017
632.952	2278.97442
633.239	2200.6674
633.526	2174.20973
633.813	2189.47478
634.1	2194.56251
634.387	2150.79799
634.674	2096.82457
634.961	2117.19594
635.247	2154.87006
635.534	2133.48951
635.821	2124.32477
636.108	2201.68484
636.394	2222.03103
636.681	2130.43471
636.968	1997.95329
637.255	2004.07244
637.541	2116.17749
637.828	2072.37243
638.114	1981.63334
638.401	2011.21088
638.687	2005.09225
638.974	1967.35072
639.26	2058.1054
639.547	2122.28802
639.833	2046.89389
640.119	2020.38797
640.406	1985.71363
640.692	1986.73367
640.978	2111.08505
641.265	2166.06725
641.551	2050.97097
641.837	2005.09225
642.123	2094.78716
642.409	2081.54281
642.696	1974.49234
642.982	1916.32096
643.268	1986.73367
643.554	2037.71971
643.84	2119.23281
644.126	2135.52599
644.412	2152.83405
644.698	2187.43959
644.984	2183.36909
645.269	2128.39811
645.555	2086.63704
645.841	2171.15639
646.127	2091.73096
646.413	2061.16282
646.698	2140.61696
646.984	2177.26296
647.27	2206.77184
647.556	2285.07323
647.841	2298.28579
648.127	2308.4479
648.412	2277.95791
648.698	2278.97442
648.984	2379.54822
649.269	2397.82138
649.554	2436.38483
649.84	2369.39473
650.125	2364.31752
650.411	2423.1941
650.696	2341.97414
650.982	2353.14657
651.267	2411.01616
651.552	2382.59402
651.837	2295.23692
652.123	2303.367
652.408	2376.5023
652.693	2367.36388
652.978	2279.99092
653.263	2240.33844
653.549	2283.04034
653.834	2326.7366
654.119	2223.04821
654.404	2150.79799
654.689	2267.79214
654.974	2299.30206
655.259	2272.87518
655.544	2278.97442
655.828	2261.69208
656.113	2286.08965
656.398	2402.89655
656.683	2485.07075
656.968	1743.59457
657.253	811.88388
657.537	596.91145
657.822	578.87566
658.107	592.66961
658.391	568.25651
658.676	599.03194
658.961	596.91145
659.245	555.50366
659.53	574.62889
659.814	583.12126
660.099	572.50506
660.383	590.54827
660.668	585.24363
