Data from sample_5_A_12Oclock_ST026791__149__22958.txt Node

Date: Tue Aug 19 16:34:16 AEST 2025
User: mathewyoussef
Spectrometer: ST02679
Trigger mode: 0
Integration Time (sec): 6.653700E-1
Scans to average: 1
Nonlinearity correction enabled: true
Boxcar width: 0
Storing dark spectrum: false
XAxis mode: Wavelengths
Number of Pixels in Spectrum: 1516
>>>>>Begin Spectral Data<<<<<
187.304	604.33193
187.653	600.09208
188.002	589.48748
188.351	571.44303
188.7	583.12126
189.048	590.54827
189.397	619.16254
189.746	612.80824
190.094	617.04472
190.443	603.27207
190.791	588.42663
191.14	596.91145
191.488	585.24363
191.837	585.24363
192.185	582.05997
192.533	574.62889
192.881	588.42663
193.229	611.74894
193.577	635.0375
193.925	608.57064
194.273	599.03194
194.621	630.80567
194.969	623.39736
195.317	594.79068
195.664	592.66961
196.012	592.66961
196.359	571.44303
196.707	570.38093
197.054	584.18248
197.402	617.04472
197.749	597.97173
198.096	554.44043
198.443	585.24363
198.791	596.91145
199.138	605.39171
199.485	599.03194
199.832	577.81408
200.179	594.79068
200.525	602.21215
200.872	604.33193
201.219	601.15215
201.566	605.39171
201.912	592.66961
202.259	594.79068
202.605	604.33193
202.952	573.56701
203.298	562.94414
203.644	577.81408
203.991	604.33193
204.337	623.39736
204.683	624.4559
205.029	613.86746
205.375	607.51107
205.721	654.06749
206.067	640.32577
206.413	588.42663
206.759	607.51107
207.104	604.33193
207.45	604.33193
207.796	628.68935
208.141	615.9857
208.487	600.09208
208.832	601.15215
209.177	579.93717
209.523	584.18248
209.868	593.73018
210.213	577.81408
210.558	558.69289
210.903	584.18248
211.248	604.33193
211.593	574.62889
211.938	583.12126
212.283	623.39736
212.628	619.16254
212.973	613.86746
213.317	606.45143
213.662	569.31875
214.007	583.12126
214.351	590.54827
214.696	597.97173
215.04	599.03194
215.384	597.97173
215.729	588.42663
216.073	588.42663
216.417	610.68958
216.761	604.33193
217.105	592.66961
217.449	602.21215
217.793	618.10366
218.137	593.73018
218.481	600.09208
218.824	624.4559
219.168	599.03194
219.512	573.56701
219.855	575.69069
220.199	565.06931
220.542	558.69289
220.886	604.33193
221.229	631.86373
221.572	630.80567
221.916	621.28009
222.259	583.12126
222.602	582.05997
222.945	566.13178
223.288	558.69289
223.631	602.21215
223.974	605.39171
224.317	603.27207
224.659	628.68935
225.002	631.86373
225.345	584.18248
225.687	568.25651
226.03	614.92662
226.372	599.03194
226.715	606.45143
227.057	591.60898
227.4	567.19418
227.742	607.51107
228.084	601.15215
228.426	601.15215
228.768	609.63015
229.11	609.63015
229.452	601.15215
229.794	619.16254
230.136	590.54827
230.478	561.88144
230.82	590.54827
231.161	583.12126
231.503	656.18062
231.845	702.605
232.186	693.11893
232.528	659.34982
232.869	592.66961
233.21	604.33193
233.552	593.73018
233.893	574.62889
234.234	586.3047
234.575	584.18248
234.916	594.79068
235.257	600.09208
235.598	626.57276
235.939	662.51844
236.28	618.10366
236.621	604.33193
236.961	638.21066
237.302	635.0375
237.643	607.51107
237.983	617.04472
238.324	624.4559
238.664	647.72654
239.005	638.21066
239.345	594.79068
239.685	605.39171
240.025	602.21215
240.366	605.39171
240.706	614.92662
241.046	605.39171
241.386	590.54827
241.726	575.69069
242.066	554.44043
242.405	559.75581
242.745	577.81408
243.085	586.3047
243.425	591.60898
243.764	610.68958
244.104	682.573
244.443	669.90963
244.783	613.86746
245.122	611.74894
245.461	606.45143
245.801	611.74894
246.14	618.10366
246.479	603.27207
246.818	570.38093
247.157	599.03194
247.496	623.39736
247.835	600.09208
248.174	586.3047
248.513	586.3047
248.852	661.4623
249.19	662.51844
249.529	591.60898
249.868	590.54827
250.206	576.75242
250.545	558.69289
250.883	583.12126
251.221	586.3047
251.56	594.79068
251.898	618.10366
252.236	614.92662
252.574	603.27207
252.912	593.73018
253.25	574.62889
253.588	556.56681
253.926	583.12126
254.264	607.51107
254.602	600.09208
254.94	588.42663
255.278	586.3047
255.615	582.05997
255.953	576.75242
256.29	608.57064
256.628	615.9857
256.965	564.00676
257.303	560.81866
257.64	643.49793
257.977	645.61237
258.314	586.3047
258.652	586.3047
258.989	600.09208
259.326	605.39171
259.663	600.09208
260	599.03194
260.337	579.93717
260.673	568.25651
261.01	567.19418
261.347	579.93717
261.684	594.79068
262.02	611.74894
262.357	629.74755
262.693	585.24363
263.03	572.50506
263.366	596.91145
263.702	590.54827
264.039	587.3657
264.375	589.48748
264.711	588.42663
265.047	587.3657
265.383	597.97173
265.719	593.73018
266.055	591.60898
266.391	629.74755
266.727	615.9857
267.063	604.33193
267.399	610.68958
267.734	572.50506
268.07	584.18248
268.405	620.22135
268.741	636.09528
269.076	610.68958
269.412	585.24363
269.747	574.62889
270.082	584.18248
270.418	608.57064
270.753	588.42663
271.088	588.42663
271.423	611.74894
271.758	602.21215
272.093	605.39171
272.428	600.09208
272.763	606.45143
273.098	612.80824
273.433	610.68958
273.767	612.80824
274.102	567.19418
274.436	553.37712
274.771	592.66961
275.106	602.21215
275.44	606.45143
275.774	607.51107
276.109	562.94414
276.443	572.50506
276.777	589.48748
277.111	593.73018
277.445	603.27207
277.78	615.9857
278.114	602.21215
278.447	582.05997
278.781	590.54827
279.115	579.93717
279.449	575.69069
279.783	609.63015
280.116	596.91145
280.45	572.50506
280.784	593.73018
281.117	597.97173
281.451	574.62889
281.784	648.78353
282.117	675.18714
282.451	576.75242
282.784	571.44303
283.117	595.8511
283.45	604.33193
283.783	604.33193
284.116	613.86746
284.449	613.86746
284.782	621.28009
285.115	638.21066
285.448	615.9857
285.781	595.8511
286.114	595.8511
286.446	594.79068
286.779	644.55518
287.111	622.33876
287.444	589.48748
287.776	612.80824
288.109	617.04472
288.441	623.39736
288.773	625.51436
289.106	657.23708
289.438	644.55518
289.77	625.51436
290.102	613.86746
290.434	578.87566
290.766	693.11893
291.098	713.13934
291.43	615.9857
291.762	638.21066
292.094	625.51436
292.425	595.8511
292.757	583.12126
293.089	600.09208
293.42	627.63109
293.752	639.26825
294.083	676.24245
294.414	682.573
294.746	636.09528
295.077	635.0375
295.408	670.96526
295.74	702.605
296.071	676.24245
296.402	608.57064
296.733	638.21066
297.064	648.78353
297.395	625.51436
297.726	658.29348
298.056	689.9558
298.387	695.22737
298.718	722.61514
299.049	755.21808
299.379	683.62787
299.71	651.95411
300.04	669.90963
300.371	704.71235
300.701	703.65871
301.031	725.77269
301.362	773.07418
301.692	765.72359
302.022	745.75836
302.352	741.55257
302.682	745.75836
303.012	720.50982
303.342	784.61975
303.672	796.15888
304.002	770.97429
304.332	789.8656
304.662	802.45027
304.992	798.25622
305.321	764.67329
305.651	765.72359
305.98	817.12298
306.31	801.40184
306.639	829.69168
306.969	835.97335
307.298	777.27332
307.628	837.02012
307.957	851.66981
308.286	864.21921
308.615	892.43082
308.944	908.0897
309.273	887.20897
309.602	874.67187
309.931	907.04608
310.26	872.58171
310.589	923.73871
310.918	924.78163
311.247	938.33576
311.575	946.67325
311.904	938.33576
312.233	1052.75613
312.561	998.72405
312.89	945.63121
313.218	1057.94641
313.546	1071.43711
313.875	976.87475
314.203	915.39378
314.531	985.20031
314.859	1030.94732
315.188	1010.1622
315.516	1054.83235
315.844	1053.79426
316.172	1101.51126
316.5	1108.7664
316.827	1066.24907
317.155	1077.66165
317.483	1100.47468
317.811	1103.58432
318.138	1084.92208
318.466	1107.73005
318.794	1091.14401
319.121	1091.14401
319.449	1150.19478
319.776	1147.08936
320.103	1127.41533
320.431	1222.58036
320.758	1266.97929
321.085	1224.64651
321.412	1219.48094
321.739	1220.51411
322.066	1240.13921
322.393	1209.14776
322.72	1198.81183
323.047	1237.04115
323.374	1306.17654
323.701	1321.63953
324.028	1307.20757
324.354	1297.92742
324.681	1263.88324
325.008	1347.39955
325.334	1320.60883
325.661	1250.46438
325.987	1369.02705
326.314	1416.36823
326.64	1341.21845
326.966	1352.54984
327.293	1369.02705
327.619	1384.46934
327.945	1404.02266
328.271	1401.96477
328.597	1369.02705
328.923	1339.1579
329.249	1350.48979
329.575	1360.78915
329.901	1366.96771
330.227	1413.28211
330.552	1464.69365
330.878	1428.71084
331.204	1372.1159
331.529	1343.2789
331.855	1434.88105
332.18	1544.80027
332.506	1486.27191
332.831	1381.38127
333.156	1453.38736
333.482	1495.51718
333.807	1446.19123
334.132	1491.40836
334.457	1502.70691
334.782	1531.45685
335.107	1526.32397
335.432	1450.30342
335.757	1468.80444
336.082	1487.29923
336.407	1478.05261
336.732	1478.05261
337.057	1490.3811
337.381	1517.08366
337.706	1511.94951
338.031	1514.00323
338.355	1537.61572
338.68	1561.21886
339.004	1544.80027
339.329	1597.11927
339.653	1590.96637
339.977	1493.46281
340.301	1554.03627
340.626	1580.71022
340.95	1565.32282
341.274	1587.8897
341.598	1605.32219
341.922	1649.39514
342.246	1683.19878
342.57	1685.24695
342.894	1652.4689
343.218	1629.92471
343.541	1676.02971
343.865	1645.29658
344.189	1689.3431
344.512	1769.17066
344.836	1728.24458
345.159	1705.72529
345.483	1729.26801
345.806	1725.17419
346.13	1774.28481
346.453	1755.87221
346.776	1686.27101
347.099	1762.01026
347.423	1811.09634
347.746	1771.21637
348.069	1767.1249
348.392	1861.17231
348.715	1800.87273
349.038	1752.80299
349.361	1786.55733
349.683	1779.39861
350.006	1777.35313
350.329	1803.93996
350.652	1813.1409
350.974	1784.51205
351.297	1829.49538
351.619	1889.7727
351.942	1935.71605
352.264	1943.88102
352.587	1874.45236
352.909	1859.12903
353.231	1892.83641
353.554	1891.81518
353.876	1901.00573
354.198	2007.13185
354.52	2030.58355
354.842	1933.67468
355.164	1991.83369
355.486	2005.09225
355.808	1919.38365
356.13	1909.17422
356.452	2058.1054
356.773	2102.9365
357.095	1956.12692
357.417	1920.40452
357.738	1936.73672
358.06	1983.67351
358.381	2043.83594
358.703	2035.68087
359.024	2015.28971
359.346	2007.13185
359.667	2007.13185
359.988	1999.99306
360.309	2036.7003
360.631	2005.09225
360.952	2007.13185
361.273	2009.17139
361.594	2055.04786
361.915	2108.02943
362.236	2043.83594
362.557	2101.91788
362.878	2195.58002
363.198	2191.50991
363.519	2118.21438
363.84	2083.58054
364.16	2053.00944
364.481	2094.78716
364.802	2132.47126
365.122	2187.43959
365.443	2185.40437
365.763	2120.25123
366.083	2096.82457
366.404	2081.54281
366.724	2146.72573
367.044	2151.81603
367.364	2114.14055
367.685	2108.02943
368.005	2062.18194
368.325	2070.33443
368.645	2099.88059
368.965	2083.58054
369.284	2088.67465
369.604	2139.59879
369.924	2207.78921
370.244	2297.26952
370.564	2272.87518
370.883	2180.31608
371.203	2232.2023
371.522	2312.5124
371.842	2336.89526
372.161	2308.4479
372.481	2304.3832
372.8	2302.35078
373.119	2305.39939
373.439	2372.4409
373.758	2345.02131
374.077	2213.89314
374.396	2227.11682
374.715	2193.54499
375.034	2118.21438
375.353	2145.70763
375.672	2040.77788
375.991	1948.9837
376.31	1928.57103
376.629	1868.32339
376.948	1874.45236
377.266	1999.99306
377.585	2138.58061
377.904	2212.87585
378.222	2212.87585
378.541	2269.82539
378.859	2340.95839
379.178	2379.54822
379.496	2359.24
379.814	2326.7366
380.133	2281.00741
380.451	2223.04821
380.769	2207.78921
381.087	2199.64995
381.405	2190.49235
381.723	2188.45719
382.041	2216.94494
382.359	2243.38929
382.677	2242.37235
382.995	2312.5124
383.313	2356.19334
383.631	2251.52435
383.949	2236.27047
384.266	2293.20428
384.584	2341.97414
384.901	2338.92685
385.219	2318.60878
385.537	2370.41013
385.854	2387.67012
386.171	2356.19334
386.489	2391.73077
386.806	2396.80631
387.123	2402.89655
387.441	2341.97414
387.758	2437.39942
388.075	2453.63107
388.392	2359.24
388.709	2392.7459
389.026	2314.54457
389.343	2335.87945
389.66	2410.00126
389.977	2468.84533
390.294	2432.32637
390.61	2378.53292
390.927	2478.98659
391.244	2486.08473
391.56	2457.68848
391.877	2406.95645
392.193	2313.52849
392.51	2395.79123
392.826	2412.03106
393.143	2390.71563
393.459	2400.86652
393.775	2365.33298
394.092	2349.08404
394.408	2358.22446
394.724	2410.00126
395.04	2427.25301
395.356	2464.78847
395.672	2565.13617
395.988	2621.84291
396.304	2526.63361
396.62	2519.53903
396.936	2663.33445
397.252	2652.20474
397.567	2612.73207
397.883	2666.36956
398.199	2616.78146
398.514	2545.8872
398.83	2616.78146
399.146	2692.66878
399.461	2699.74782
399.777	2587.41866
400.092	2543.86073
400.407	2528.66052
400.723	2463.77422
401.038	2435.37024
401.353	2459.71711
401.668	2527.64708
401.983	2503.32048
402.298	2508.38913
402.613	2472.90199
402.928	2444.50116
403.243	2447.54458
403.558	2439.42855
403.873	2465.8027
404.188	2417.10536
404.503	2341.97414
404.817	2374.47163
405.132	2506.36171
405.447	2536.76766
405.761	2527.64708
406.076	2509.40282
406.39	2456.67415
406.705	2484.05675
407.019	2550.95317
407.334	2528.66052
407.648	2489.1266
407.962	2422.17934
408.276	2389.70047
408.591	2448.55902
408.905	2486.08473
409.219	2558.04499
409.533	2575.26535
409.847	2576.2782
410.161	2623.8674
410.475	2617.79378
410.789	2527.64708
411.102	2548.92682
411.416	2741.19761
411.73	2715.92601
412.044	2564.12319
412.357	2535.75431
412.671	2515.48469
412.984	2531.70079
413.298	2552.97947
413.611	2593.49461
413.925	2609.69489
414.238	2575.26535
414.552	2618.80608
414.865	2592.48199
415.178	2546.90042
415.491	2557.03191
415.804	2582.355
416.118	2519.53903
416.431	2467.83113
416.744	2443.48666
417.057	2405.9415
417.37	2428.26771
417.683	2398.83644
417.995	2503.32048
418.308	2537.78099
418.621	2478.98659
418.934	2441.45763
419.246	2484.05675
419.559	2632.97695
419.872	2608.68247
420.184	2535.75431
420.497	2593.49461
420.809	2686.60052
421.121	2589.44403
421.434	2514.47108
421.746	2552.97947
422.058	2517.51189
422.371	2531.70079
422.683	2506.36171
422.995	2451.60229
423.307	2504.33424
423.619	2562.09717
423.931	2532.71419
424.243	2473.91612
424.555	2483.04275
424.867	2522.57964
425.179	2574.25249
425.491	2539.80762
425.802	2450.58788
426.114	2469.85951
426.426	2478.98659
426.737	2444.50116
427.049	2448.55902
427.361	2473.91612
427.672	2408.98633
427.984	2371.42552
428.295	2451.60229
428.606	2453.63107
428.918	2420.14978
429.229	2555.00571
429.54	2571.21383
429.851	2364.31752
430.163	2315.56064
430.474	2334.86363
430.785	2390.71563
431.096	2421.16457
431.407	2450.58788
431.718	2455.6598
432.029	2371.42552
432.339	2353.14657
432.65	2360.25553
432.961	2399.85148
433.272	2406.95645
433.582	2442.47215
433.893	2420.14978
434.204	2371.42552
434.514	2417.10536
434.825	2396.80631
435.135	2368.37931
435.446	2446.53012
435.756	2546.90042
436.066	2476.95844
436.377	2431.31172
436.687	2486.08473
436.997	2496.22385
437.307	2497.23769
437.617	2493.18225
437.927	2478.98659
438.237	2444.50116
438.547	2441.45763
438.857	2498.25152
439.167	2571.21383
439.477	2559.05805
439.787	2505.34798
440.097	2447.54458
440.407	2456.67415
440.716	2452.61669
441.026	2485.07075
441.336	2562.09717
441.645	2515.48469
441.955	2483.04275
442.264	2503.32048
442.574	2579.31666
442.883	2608.68247
443.192	2593.49461
443.502	2601.59517
443.811	2591.46935
444.12	2557.03191
444.429	2436.38483
444.739	2396.80631
445.048	2544.87397
445.357	2606.65759
445.666	2520.55258
445.975	2481.0147
446.284	2437.39942
446.593	2393.76102
446.901	2394.77613
447.21	2428.26771
447.519	2416.09052
447.828	2428.26771
448.136	2472.90199
448.445	2491.15445
448.754	2498.25152
449.062	2481.0147
449.371	2526.63361
449.679	2547.91363
449.988	2515.48469
450.296	2621.84291
450.605	2763.42967
450.913	2835.13387
451.221	3081.01975
451.529	3121.24808
451.838	2939.03215
452.146	2888.61449
452.454	2875.5002
452.762	2957.17393
453.07	2890.63187
453.378	2769.49183
453.686	2787.67538
453.994	2916.85268
454.302	2813.93274
454.609	2572.22673
454.917	2595.51983
455.225	2662.32273
455.533	2661.31099
455.84	2647.14525
456.148	2604.63266
456.455	2539.80762
456.763	2579.31666
457.07	2733.11161
457.378	2775.5535
457.685	2669.40454
457.993	2643.09743
458.3	2668.39289
458.607	2697.7253
458.915	2745.24028
459.222	2827.05796
459.529	2879.53562
459.836	2903.74345
460.143	2750.29333
460.45	2624.87962
460.757	2651.19287
461.064	2709.85959
461.371	2773.533
461.678	2777.57395
461.985	2844.21822
462.292	2890.63187
462.598	2878.52678
462.905	2960.19711
463.212	3153.41407
463.518	3174.51491
463.825	3183.55616
464.131	3384.16631
464.438	3391.17699
464.744	3209.66868
465.051	3146.37903
465.357	3289.95279
465.664	3314.01968
465.97	3160.44839
466.276	3151.40413
466.582	3108.17641
466.889	2995.45823
467.195	3080.01374
467.501	3229.74851
467.807	3414.20702
468.113	3634.10125
468.419	3842.35218
468.725	3954.69315
469.031	3981.51018
469.337	4105.53907
469.642	4075.79042
469.948	3960.65333
470.254	4020.22889
470.56	3870.20514
470.865	3612.14367
471.171	3569.20627
471.477	3529.24025
471.782	3323.04258
472.088	3217.70131
472.393	3431.2242
472.698	3345.09353
473.004	3138.33811
473.309	3294.96743
473.614	3434.22679
473.92	3494.25074
474.225	3515.2466
474.53	3469.2472
474.835	3453.24011
475.14	3398.18696
475.445	3303.99284
475.75	3192.59622
476.055	3175.51955
476.36	3112.19872
476.665	2952.135
476.97	2925.92692
477.275	2968.25832
477.58	2941.04813
477.885	2957.17393
478.189	2947.09572
478.494	2885.58833
478.799	2893.65783
479.103	2829.07702
479.408	2841.19022
479.712	2929.95955
480.017	2983.37066
480.321	3040.76838
480.625	3067.94057
480.93	3119.23721
481.234	3203.64359
481.538	3267.88403
481.843	3390.17551
482.147	3527.24133
482.451	3564.2118
482.755	3634.10125
483.059	3682.98157
483.363	3719.86831
483.667	3788.60499
483.971	3777.65149
484.275	3765.70026
484.579	3778.64733
484.883	3831.40698
485.187	3850.31128
485.49	3845.33695
485.794	3857.27476
486.098	3773.66797
486.401	3677.99537
486.705	3663.0346
487.009	3632.10539
487.312	3659.04452
487.616	3729.83433
487.919	3641.08627
488.222	3606.15403
488.526	3614.14011
488.829	3693.94995
489.132	3705.91347
489.436	3572.20278
489.739	3566.20963
490.042	3635.09915
490.345	3647.07287
490.648	3652.06131
490.951	3712.89124
491.254	3767.69227
491.557	3783.62634
491.86	3767.69227
492.163	3872.19423
492.466	3997.39719
492.769	4124.37404
493.072	4194.71805
493.375	4265.9913
493.677	4324.35141
493.98	4320.39602
494.283	4298.63821
494.585	4179.86174
494.888	4116.44408
495.19	4160.0491
495.493	4155.09519
495.795	3995.4115
496.098	3890.09351
496.4	3970.58589
496.702	3925.87883
497.005	3881.14442
497.307	3936.80973
497.609	3914.94629
497.911	3938.79699
498.213	3890.09351
498.515	3872.19423
498.818	3908.9824
499.12	3831.40698
499.422	3847.32672
499.723	3867.22141
500.025	3919.91583
500.327	3863.24292
500.629	3811.50229
500.931	3916.93415
501.233	3910.97042
501.534	3857.27476
501.836	3834.3922
502.138	3892.08205
502.439	3993.42576
502.741	3914.94629
503.042	3945.75198
503.344	4026.18385
503.645	4051.98328
503.947	4024.19891
504.248	4008.31756
504.55	4098.59874
504.851	4150.14096
505.152	4174.90903
505.453	4051.98328
505.755	4121.4004
506.056	4165.00272
506.357	4130.321
506.658	4130.321
506.959	4093.64098
507.26	4191.747
507.561	4160.0491
507.862	4065.87167
508.163	4113.47014
508.464	4151.13183
508.764	4147.16828
509.065	4032.13834
509.366	4130.321
509.667	4280.83234
509.967	4134.28538
510.268	4047.02252
510.569	4149.15008
510.869	4141.22259
511.17	4003.35396
511.47	4044.04592
511.771	4045.03813
512.071	4045.03813
512.371	4122.39163
512.672	4128.33873
512.972	4175.8996
513.272	4207.59134
513.573	4062.8958
513.873	4043.05369
514.173	4116.44408
514.473	4125.36523
514.773	4142.21357
515.073	4097.60721
515.373	4099.59025
515.673	4058.92779
515.973	3980.51713
516.273	3991.43996
516.573	4056.94371
516.873	4137.25855
517.172	4090.66617
517.472	3982.50322
517.772	4013.28084
518.072	4062.8958
518.371	4080.74932
518.671	4050.99115
518.97	4056.94371
519.27	4087.69125
519.569	4079.75757
519.869	4077.77402
520.168	4121.4004
520.468	4156.08599
520.767	4069.83933
521.066	4000.37563
521.366	4062.8958
521.665	4047.02252
521.964	4040.07693
522.263	4080.74932
522.562	4049.99901
522.861	4050.99115
523.161	4031.14595
523.46	3994.41864
523.759	4044.04592
524.057	4084.71621
524.356	4042.06145
524.655	4028.16873
524.954	3996.40435
525.253	4020.22889
525.552	4102.56472
525.85	4109.50471
526.149	4092.64939
526.448	4006.33216
526.746	3997.39719
527.045	3984.48925
527.344	4059.91981
527.642	4168.96539
527.941	4111.48745
528.239	4090.66617
528.537	4114.46146
528.836	4131.31211
529.134	4025.19138
529.432	3972.57225
529.731	4059.91981
530.029	4117.43537
530.327	4093.64098
530.625	4065.87167
530.923	3979.52407
531.221	3935.81608
531.52	4039.08465
531.818	3990.44704
532.116	3952.70632
532.413	3990.44704
532.711	3994.41864
533.009	4085.7079
533.307	4069.83933
533.605	3963.63324
533.903	3994.41864
534.2	4008.31756
534.498	4007.32487
534.796	4058.92779
535.093	4041.0692
535.391	3988.46116
535.689	3992.43286
535.986	4035.11541
536.284	4017.25123
536.581	4043.05369
536.878	4138.24957
537.176	4104.54764
537.473	4010.30291
537.77	4032.13834
538.068	4025.19138
538.365	4057.93575
538.662	4085.7079
538.959	3997.39719
539.256	3985.48225
539.554	4037.10005
539.851	4072.81493
540.148	4032.13834
540.445	3957.6733
540.742	3871.19969
541.039	3896.05895
541.335	3987.46821
541.632	4004.3467
541.929	4020.22889
542.226	4004.3467
542.523	4056.94371
542.819	4015.26606
543.116	3932.83504
543.413	3967.60626
543.709	3928.86014
544.006	3946.7455
544.302	4048.0147
544.599	4076.78223
544.895	3973.5654
545.192	3900.03564
545.488	3973.5654
545.785	4004.3467
546.081	3971.57908
546.377	3975.55168
546.673	4049.99901
546.97	4039.08465
547.266	3972.57225
547.562	4008.31756
547.858	4010.30291
548.154	3996.40435
548.45	3994.41864
548.746	4063.88777
549.042	4051.98328
549.338	3933.82874
549.634	3953.69974
549.93	3996.40435
550.226	3925.87883
550.522	3931.84134
550.818	3903.01802
551.113	3890.09351
551.409	4047.02252
551.705	4019.23635
552	3877.1667
552.296	3833.39714
552.592	3912.95838
552.887	3946.7455
553.183	3884.12758
553.478	3858.26948
553.774	3814.48835
554.069	3884.12758
554.364	4030.15356
554.66	3925.87883
554.955	3758.72777
555.25	3761.71606
555.546	3764.70423
555.841	3833.39714
556.136	3935.81608
556.431	3913.95234
556.726	3806.52525
557.021	3769.68423
557.316	3799.5568
557.611	3806.52525
557.906	3804.53434
558.201	3748.76586
558.496	3775.65976
558.791	3835.38725
559.086	3792.58767
559.381	3762.71213
559.675	3815.48368
559.97	3836.38228
560.265	3863.24292
560.56	3821.45533
560.854	3773.66797
561.149	3797.56569
561.443	3762.71213
561.738	3644.07964
562.032	3696.94102
562.327	3747.7696
562.621	3699.93196
562.916	3719.86831
563.21	3675.00347
563.504	3566.20963
563.799	3539.23395
564.093	3612.14367
564.387	3576.19792
564.681	3598.16701
564.976	3611.14544
565.27	3518.24548
565.564	3582.19019
565.858	3672.01145
566.152	3542.23178
566.446	3511.24789
566.74	3612.14367
567.034	3568.20741
567.328	3523.24333
567.622	3641.08627
567.916	3627.11551
568.209	3599.16544
568.503	3636.09704
568.797	3530.23969
569.091	3483.25031
569.384	3438.23004
569.678	3415.20815
569.972	3426.21959
570.265	3450.23836
570.559	3431.2242
570.852	3423.21665
571.146	3455.2412
571.439	3392.17846
571.733	3416.20926
572.026	3483.25031
572.319	3534.23729
572.613	3519.24508
572.906	3461.24413
573.199	3491.2508
573.492	3445.23515
573.786	3343.08919
574.079	3454.24066
574.372	3528.2408
574.665	3468.24687
574.958	3452.23954
575.251	3389.17401
575.544	3330.05957
575.837	3339.08034
576.13	3328.05479
576.423	3372.1463
576.716	3360.12418
577.009	3302.99008
577.301	3370.14276
577.594	3371.14454
577.887	3329.05718
578.18	3367.13734
578.472	3412.20472
578.765	3384.16631
579.057	3242.79725
579.35	3260.86066
579.643	3373.14805
579.935	3339.08034
580.228	3255.84352
580.52	3263.87076
580.813	3303.99284
581.105	3292.96162
581.397	3267.88403
581.69	3198.62228
581.982	3242.79725
582.274	3336.07355
582.566	3258.85385
582.859	3212.68103
583.151	3243.8009
583.443	3281.92861
583.735	3410.20236
584.027	3402.19233
584.319	3239.78623
584.611	3215.69324
584.903	3215.69324
585.195	3245.80815
585.487	3283.93474
585.779	3217.70131
586.071	3242.79725
586.363	3284.93779
586.654	3231.75617
586.946	3168.48675
587.238	3139.34328
587.529	3100.13109
587.821	3199.62657
588.113	3275.90986
588.404	3178.53338
588.696	3072.97131
588.987	3141.35356
589.279	3254.84005
589.57	3194.60497
589.862	3177.52879
590.153	3179.53797
590.445	3241.79359
590.736	3253.83657
591.027	3190.58742
591.319	3215.69324
591.61	3235.77131
591.901	3139.34328
592.192	3021.64095
592.484	3097.11385
592.775	3152.4091
593.066	3152.4091
593.357	3244.80453
593.648	3158.43866
593.939	2979.34101
594.23	3013.58575
594.521	3065.92818
594.812	3086.04955
595.103	3126.27499
595.393	3054.85897
595.684	2969.26591
595.975	3031.70866
596.266	3052.8462
596.557	3067.94057
596.847	2945.07991
597.138	2840.18087
597.429	2884.57958
597.719	2908.78574
598.01	2852.29226
598.3	2806.86436
598.591	2896.68366
598.881	2996.46543
599.172	2991.42926
599.462	2874.49131
599.753	2823.01968
600.043	2785.6552
600.333	2759.38796
600.624	2815.95216
600.914	2837.15271
601.204	2795.75555
601.494	2781.61468
601.785	2767.47116
602.075	2804.8447
602.365	2804.8447
602.655	2689.63471
602.945	2686.60052
603.235	2716.93704
603.525	2683.56622
603.815	2668.39289
604.105	2622.85516
604.395	2671.42779
604.685	2747.26154
604.975	2745.24028
605.265	2773.533
605.554	2746.25092
605.844	2791.71557
606.134	2731.08997
606.424	2661.31099
606.713	2684.57767
607.003	2582.355
607.293	2625.89183
607.582	2730.07914
607.872	2703.79268
608.161	2625.89183
608.451	2605.64513
608.74	2623.8674
609.03	2632.97695
609.319	2618.80608
609.608	2531.70079
609.898	2539.80762
610.187	2620.83064
610.476	2591.46935
610.766	2581.34224
611.055	2557.03191
611.344	2506.36171
611.633	2582.355
611.922	2624.87962
612.211	2510.4165
612.501	2559.05805
612.79	2663.33445
613.079	2626.90403
613.368	2570.20092
613.657	2530.68738
613.946	2520.55258
614.234	2560.0711
614.523	2583.36776
614.812	2605.64513
615.101	2602.60768
615.39	2594.50723
615.679	2588.43135
615.967	2572.22673
616.256	2596.53242
616.545	2513.45745
616.833	2446.53012
617.122	2529.67396
617.411	2513.45745
617.699	2444.50116
617.988	2472.90199
618.276	2580.32945
618.565	2571.21383
618.853	2467.83113
619.141	2484.05675
619.43	2515.48469
619.718	2612.73207
620.007	2632.97695
620.295	2499.26534
620.583	2401.88154
620.871	2457.68848
621.16	2552.97947
621.448	2525.62014
621.736	2534.74095
622.024	2527.64708
622.312	2461.74569
622.6	2444.50116
622.888	2463.77422
623.176	2469.85951
623.464	2448.55902
623.752	2500.27915
624.04	2502.30672
624.328	2386.65492
624.616	2412.03106
624.904	2454.64544
625.192	2427.25301
625.479	2421.16457
625.767	2380.5635
626.055	2348.06838
626.343	2355.17776
626.63	2358.22446
626.918	2374.47163
627.206	2320.6408
627.493	2199.64995
627.781	2218.97941
628.068	2266.77549
628.356	2304.3832
628.643	2341.97414
628.931	2317.59274
629.218	2291.17159
629.505	2303.367
629.793	2308.4479
630.08	2316.5767
630.367	2261.69208
630.655	2304.3832
630.942	2305.39939
631.229	2230.16815
631.516	2238.30448
631.804	2244.40622
632.091	2262.70879
632.378	2277.95791
632.665	2273.89175
632.952	2236.27047
633.239	2182.35143
633.526	2166.06725
633.813	2176.24523
634.1	2198.63249
634.387	2203.71967
634.674	2176.24523
634.961	2101.91788
635.247	2051.99021
635.534	2078.48613
635.821	2137.56241
636.108	2181.33376
636.394	2208.80656
636.681	2179.29838
636.968	2055.04786
637.255	2077.46721
637.541	2158.94194
637.828	2091.73096
638.114	1980.61323
638.401	2057.08623
638.687	2091.73096
638.974	2048.93245
639.26	2118.21438
639.547	2181.33376
639.833	2130.43471
640.119	2045.87458
640.406	2041.79725
640.692	2092.74971
640.978	2120.25123
641.265	2093.76844
641.551	1976.53269
641.837	1952.04516
642.123	2101.91788
642.409	2186.42199
642.696	2088.67465
642.982	1971.43172
643.268	2026.50547
643.554	2092.74971
643.84	2131.45299
644.126	2144.68952
644.412	2242.37235
644.698	2257.62514
644.984	2171.15639
645.269	2091.73096
645.555	2111.08505
645.841	2205.75447
646.127	2197.61501
646.413	2195.58002
646.698	2151.81603
646.984	2182.35143
647.27	2206.77184
647.556	2191.50991
647.841	2274.90831
648.127	2386.65492
648.412	2360.25553
648.698	2288.12246
648.984	2346.03701
649.269	2407.9714
649.554	2442.47215
649.84	2432.32637
650.125	2456.67415
650.411	2408.98633
650.696	2302.35078
650.982	2414.06082
651.267	2530.68738
651.552	2464.78847
651.837	2354.16218
652.123	2402.89655
652.408	2450.58788
652.693	2363.30204
652.978	2329.78432
653.263	2293.20428
653.549	2279.99092
653.834	2322.67278
654.119	2250.50751
654.404	2194.56251
654.689	2246.44003
654.974	2269.82539
655.259	2231.18523
655.544	2347.0527
655.828	2387.67012
656.113	2269.82539
656.398	2293.20428
656.683	2428.26771
656.968	1778.37588
657.253	826.55018
657.537	591.60898
657.822	589.48748
658.107	619.16254
658.391	600.09208
658.676	594.79068
658.961	599.03194
659.245	580.99861
659.53	568.25651
659.814	594.79068
660.099	624.4559
660.383	578.87566
660.668	546.99569
