Data from sample_5_A_12Oclock_ST026791__17__22826.txt Node

Date: Tue Aug 19 16:31:17 AEST 2025
User: mathewyoussef
Spectrometer: ST02679
Trigger mode: 0
Integration Time (sec): 6.653700E-1
Scans to average: 1
Nonlinearity correction enabled: true
Boxcar width: 0
Storing dark spectrum: false
XAxis mode: Wavelengths
Number of Pixels in Spectrum: 1516
>>>>>Begin Spectral Data<<<<<
187.304	588.42663
187.653	632.92172
188.002	631.86373
188.351	594.79068
188.7	579.93717
189.048	585.24363
189.397	597.97173
189.746	592.66961
190.094	591.60898
190.443	582.05997
190.791	548.05945
191.14	571.44303
191.488	608.57064
191.837	623.39736
192.185	600.09208
192.533	591.60898
192.881	618.10366
193.229	618.10366
193.577	610.68958
193.925	602.21215
194.273	610.68958
194.621	620.22135
194.969	590.54827
195.317	541.6757
195.664	575.69069
196.012	606.45143
196.359	555.50366
196.707	559.75581
197.054	602.21215
197.402	619.16254
197.749	588.42663
198.096	570.38093
198.443	569.31875
198.791	560.81866
199.138	578.87566
199.485	594.79068
199.832	594.79068
200.179	602.21215
200.525	607.51107
200.872	629.74755
201.219	648.78353
201.566	606.45143
201.912	586.3047
202.259	596.91145
202.605	574.62889
202.952	591.60898
203.298	583.12126
203.644	575.69069
203.991	605.39171
204.337	600.09208
204.683	612.80824
205.029	593.73018
205.375	572.50506
205.721	614.92662
206.067	633.97964
206.413	603.27207
206.759	583.12126
207.104	577.81408
207.45	590.54827
207.796	614.92662
208.141	606.45143
208.487	593.73018
208.832	619.16254
209.177	607.51107
209.523	603.27207
209.868	610.68958
210.213	593.73018
210.558	617.04472
210.903	620.22135
211.248	595.8511
211.593	586.3047
211.938	595.8511
212.283	633.97964
212.628	619.16254
212.973	567.19418
213.317	551.25029
213.662	573.56701
214.007	603.27207
214.351	619.16254
214.696	606.45143
215.04	589.48748
215.384	590.54827
215.729	585.24363
216.073	580.99861
216.417	583.12126
216.761	604.33193
217.105	612.80824
217.449	612.80824
217.793	610.68958
218.137	595.8511
218.481	591.60898
218.824	608.57064
219.168	599.03194
219.512	577.81408
219.855	578.87566
220.199	556.56681
220.542	538.48278
220.886	580.99861
221.229	595.8511
221.572	572.50506
221.916	562.94414
222.259	583.12126
222.602	583.12126
222.945	559.75581
223.288	591.60898
223.631	584.18248
223.974	565.06931
224.317	571.44303
224.659	582.05997
225.002	639.26825
225.345	626.57276
225.687	579.93717
226.03	635.0375
226.372	656.18062
226.715	596.91145
227.057	566.13178
227.4	587.3657
227.742	622.33876
228.084	600.09208
228.426	585.24363
228.768	596.91145
229.11	564.00676
229.452	559.75581
229.794	592.66961
230.136	601.15215
230.478	601.15215
230.82	592.66961
231.161	562.94414
231.503	625.51436
231.845	646.66949
232.186	647.72654
232.528	661.4623
232.869	612.80824
233.21	603.27207
233.552	596.91145
233.893	603.27207
234.234	597.97173
234.575	601.15215
234.916	608.57064
235.257	595.8511
235.598	596.91145
235.939	588.42663
236.28	592.66961
236.621	624.4559
236.961	643.49793
237.302	628.68935
237.643	599.03194
237.983	604.33193
238.324	583.12126
238.664	610.68958
239.005	635.0375
239.345	593.73018
239.685	588.42663
240.025	587.3657
240.366	589.48748
240.706	600.09208
241.046	585.24363
241.386	571.44303
241.726	576.75242
242.066	571.44303
242.405	564.00676
242.745	578.87566
243.085	585.24363
243.425	592.66961
243.764	655.12409
244.104	699.44353
244.443	647.72654
244.783	592.66961
245.122	583.12126
245.461	607.51107
245.801	632.92172
246.14	611.74894
246.479	608.57064
246.818	587.3657
247.157	611.74894
247.496	639.26825
247.835	612.80824
248.174	608.57064
248.513	573.56701
248.852	614.92662
249.19	618.10366
249.529	570.38093
249.868	599.03194
250.206	590.54827
250.545	562.94414
250.883	560.81866
251.221	582.05997
251.56	606.45143
251.898	579.93717
252.236	583.12126
252.574	610.68958
252.912	591.60898
253.25	586.3047
253.588	592.66961
253.926	615.9857
254.264	604.33193
254.602	574.62889
254.94	592.66961
255.278	588.42663
255.615	564.00676
255.953	583.12126
256.29	614.92662
256.628	591.60898
256.965	567.19418
257.303	590.54827
257.64	644.55518
257.977	621.28009
258.314	565.06931
258.652	558.69289
258.989	577.81408
259.326	613.86746
259.663	624.4559
260	617.04472
260.337	585.24363
260.673	567.19418
261.01	564.00676
261.347	567.19418
261.684	557.62989
262.02	577.81408
262.357	597.97173
262.693	574.62889
263.03	584.18248
263.366	582.05997
263.702	578.87566
264.039	593.73018
264.375	608.57064
264.711	602.21215
265.047	578.87566
265.383	613.86746
265.719	600.09208
266.055	599.03194
266.391	624.4559
266.727	608.57064
267.063	592.66961
267.399	568.25651
267.734	594.79068
268.07	609.63015
268.405	604.33193
268.741	621.28009
269.076	609.63015
269.412	588.42663
269.747	606.45143
270.082	606.45143
270.418	588.42663
270.753	580.99861
271.088	606.45143
271.423	599.03194
271.758	594.79068
272.093	623.39736
272.428	625.51436
272.763	606.45143
273.098	587.3657
273.433	624.4559
273.767	608.57064
274.102	565.06931
274.436	564.00676
274.771	596.91145
275.106	590.54827
275.44	575.69069
275.774	600.09208
276.109	584.18248
276.443	558.69289
276.777	580.99861
277.111	605.39171
277.445	602.21215
277.78	613.86746
278.114	622.33876
278.447	600.09208
278.781	572.50506
279.115	566.13178
279.449	576.75242
279.783	586.3047
280.116	599.03194
280.45	579.93717
280.784	574.62889
281.117	594.79068
281.451	596.91145
281.784	667.79818
282.117	654.06749
282.451	592.66961
282.784	592.66961
283.117	572.50506
283.45	590.54827
283.783	605.39171
284.116	599.03194
284.449	599.03194
284.782	629.74755
285.115	666.74236
285.448	624.4559
285.781	578.87566
286.114	586.3047
286.446	612.80824
286.779	649.84046
287.111	642.44061
287.444	606.45143
287.776	584.18248
288.109	605.39171
288.441	608.57064
288.773	590.54827
289.106	645.61237
289.438	630.80567
289.77	595.8511
290.102	617.04472
290.434	603.27207
290.766	654.06749
291.098	657.23708
291.43	626.57276
291.762	636.09528
292.094	591.60898
292.425	596.91145
292.757	604.33193
293.089	599.03194
293.42	612.80824
293.752	613.86746
294.083	632.92172
294.414	651.95411
294.746	642.44061
295.077	637.15301
295.408	649.84046
295.74	679.40801
296.071	667.79818
296.402	636.09528
296.733	649.84046
297.064	632.92172
297.395	635.0375
297.726	656.18062
298.056	668.85394
298.387	696.2815
298.718	735.24217
299.049	739.44933
299.379	664.63053
299.71	658.29348
300.04	674.13176
300.371	643.49793
300.701	658.29348
301.031	712.08617
301.362	727.87742
301.692	721.56251
302.022	685.73743
302.352	712.08617
302.682	744.70699
303.012	681.51806
303.342	701.55124
303.672	692.06461
304.002	718.40427
304.332	790.91461
304.662	795.11013
304.992	779.37257
305.321	760.47153
305.651	768.87417
305.98	799.30481
306.31	808.7398
306.639	795.11013
306.969	757.31963
307.298	739.44933
307.628	804.54699
307.957	841.20672
308.286	862.12812
308.615	854.8078
308.944	825.50291
309.273	828.64456
309.602	835.97335
309.931	891.38654
310.26	909.13327
310.589	895.5634
310.918	881.98598
311.247	943.547
311.575	955.00809
311.904	938.33576
312.233	1017.43867
312.561	947.71525
312.89	950.841
313.218	1111.87527
313.546	1103.58432
313.875	955.00809
314.203	919.56659
314.531	911.22028
314.859	912.26372
315.188	990.40252
315.516	1027.83048
315.844	1001.844
316.172	1016.39928
316.5	1070.39957
316.827	1091.14401
317.155	1092.18088
317.483	1088.03319
317.811	1076.62431
318.138	1025.75241
318.466	1072.47462
318.794	1074.54953
319.121	1028.86946
319.449	1118.09214
319.776	1148.12453
320.103	1109.80273
320.431	1173.9941
320.758	1221.54725
321.085	1172.95967
321.412	1175.0285
321.739	1217.41452
322.066	1206.04727
322.393	1164.68318
322.72	1177.09722
323.047	1210.1812
323.374	1292.77093
323.701	1268.01125
324.028	1243.23703
324.354	1261.81908
324.681	1209.14776
325.008	1277.29781
325.334	1259.75482
325.661	1225.67954
325.987	1348.42965
326.314	1369.02705
326.64	1312.36237
326.966	1322.6702
327.293	1297.92742
327.619	1296.89617
327.945	1324.73149
328.271	1341.21845
328.597	1388.58646
328.923	1370.05669
329.249	1323.70086
329.575	1307.20757
329.901	1331.94526
330.227	1410.19582
330.552	1452.3594
330.878	1414.31084
331.204	1405.05157
331.529	1351.51983
331.855	1400.9358
332.18	1500.65279
332.506	1393.73239
332.831	1322.6702
333.156	1438.99412
333.482	1544.80027
333.807	1483.18981
334.132	1424.59696
334.457	1457.49901
334.782	1478.05261
335.107	1451.33142
335.432	1411.2246
335.757	1420.48276
336.082	1455.44323
336.407	1457.49901
336.732	1514.00323
337.057	1578.65879
337.381	1525.29734
337.706	1479.08009
338.031	1514.00323
338.355	1539.66854
338.68	1538.64214
339.004	1504.76095
339.329	1536.58929
339.653	1571.47824
339.977	1561.21886
340.301	1549.93156
340.626	1548.90533
340.95	1581.73591
341.274	1560.19283
341.598	1549.93156
341.922	1604.29689
342.246	1628.89979
342.57	1639.14826
342.894	1617.62462
343.218	1600.19549
343.541	1712.8913
343.865	1676.02971
344.189	1598.14469
344.512	1661.68932
344.836	1704.70152
345.159	1670.90849
345.483	1604.29689
345.806	1588.91528
346.13	1716.98583
346.453	1735.40831
346.776	1653.49345
347.099	1769.17066
347.423	1810.07404
347.746	1713.91495
348.069	1737.45496
348.392	1802.91756
348.715	1750.75678
349.038	1742.57134
349.361	1748.7105
349.683	1741.54809
350.006	1739.50156
350.329	1741.54809
350.652	1832.56146
350.974	1856.06401
351.297	1823.36286
351.619	1829.49538
351.942	1882.62357
352.264	1865.25872
352.587	1821.31858
352.909	1840.73707
353.231	1857.08569
353.554	1863.21554
353.876	1871.38793
354.198	1955.1065
354.52	1961.22884
354.842	1873.43089
355.164	1925.50869
355.486	1991.83369
355.808	1912.23718
356.13	1881.60222
356.452	1991.83369
356.773	1988.77371
357.095	1876.49524
357.417	1866.28029
357.738	1870.36643
358.06	1982.65343
358.381	2007.13185
358.703	1921.42538
359.024	1980.61323
359.346	1981.63334
359.667	1944.90158
359.988	1934.69537
360.309	1975.51252
360.631	2012.23061
360.952	2025.48591
361.273	2053.00944
361.594	2115.15903
361.915	2148.76188
362.236	2050.97097
362.557	2037.71971
362.878	2036.7003
363.198	1999.99306
363.519	2051.99021
363.84	2072.37243
364.16	2024.46635
364.481	2022.42718
364.802	2030.58355
365.122	2120.25123
365.443	2176.24523
365.763	2149.77995
366.083	2097.84326
366.404	2038.73911
366.724	2087.65585
367.044	2139.59879
367.364	2088.67465
367.685	2040.77788
368.005	1988.77371
368.325	1968.37099
368.645	2071.35344
368.965	2062.18194
369.284	2023.44677
369.604	2099.88059
369.924	2144.68952
370.244	2204.73708
370.564	2191.50991
370.883	2133.48951
371.203	2213.89314
371.522	2230.16815
371.842	2299.30206
372.161	2329.78432
372.481	2281.00741
372.8	2288.12246
373.119	2279.99092
373.439	2250.50751
373.758	2204.73708
374.077	2206.77184
374.396	2236.27047
374.715	2222.03103
375.034	2133.48951
375.353	2068.29638
375.672	2030.58355
375.991	1930.61253
376.31	1847.89002
376.629	1775.3076
376.948	1808.0294
377.266	1921.42538
377.585	2049.95172
377.904	2203.71967
378.222	2209.8239
378.541	2167.0851
378.859	2182.35143
379.178	2303.367
379.496	2315.56064
379.814	2221.01384
380.133	2197.61501
380.451	2164.03151
380.769	2117.19594
381.087	2176.24523
381.405	2224.06538
381.723	2206.77184
382.041	2213.89314
382.359	2242.37235
382.677	2279.99092
382.995	2331.81608
383.313	2318.60878
383.631	2205.75447
383.949	2227.11682
384.266	2251.52435
384.584	2278.97442
384.901	2316.5767
385.219	2338.92685
385.537	2353.14657
385.854	2272.87518
386.171	2251.52435
386.489	2292.18794
386.806	2278.97442
387.123	2341.97414
387.441	2349.08404
387.758	2341.97414
388.075	2344.0056
388.392	2304.3832
388.709	2300.31831
389.026	2323.68876
389.343	2318.60878
389.66	2301.33455
389.977	2367.36388
390.294	2326.7366
390.61	2323.68876
390.927	2448.55902
391.244	2469.85951
391.56	2347.0527
391.877	2286.08965
392.193	2313.52849
392.51	2362.28655
392.826	2315.56064
393.143	2294.22061
393.459	2317.59274
393.775	2305.39939
394.092	2286.08965
394.408	2289.13885
394.724	2367.36388
395.04	2395.79123
395.356	2398.83644
395.672	2440.4431
395.988	2504.33424
396.304	2548.92682
396.62	2558.04499
396.936	2645.12137
397.252	2631.96483
397.567	2567.16211
397.883	2576.2782
398.199	2586.40595
398.514	2603.62017
398.83	2644.1094
399.146	2611.71969
399.461	2541.8342
399.777	2559.05805
400.092	2584.3805
400.407	2495.21
400.723	2454.64544
401.038	2445.51565
401.353	2372.4409
401.668	2439.42855
401.983	2453.63107
402.298	2379.54822
402.613	2360.25553
402.928	2363.30204
403.243	2319.6248
403.558	2351.11533
403.873	2458.7028
404.188	2403.91154
404.503	2345.02131
404.817	2365.33298
405.132	2368.37931
405.447	2355.17776
405.761	2421.16457
406.076	2448.55902
406.39	2428.26771
406.705	2481.0147
407.019	2478.98659
407.334	2421.16457
407.648	2495.21
407.962	2522.57964
408.276	2444.50116
408.591	2420.14978
408.905	2448.55902
409.219	2568.17506
409.533	2543.86073
409.847	2525.62014
410.161	2568.17506
410.475	2550.95317
410.789	2475.94435
411.102	2505.34798
411.416	2648.15718
411.73	2612.73207
412.044	2599.57011
412.357	2623.8674
412.671	2528.66052
412.984	2504.33424
413.298	2500.27915
413.611	2556.01882
413.925	2626.90403
414.238	2557.03191
414.552	2535.75431
414.865	2488.11266
415.178	2447.54458
415.491	2447.54458
415.804	2498.25152
416.118	2495.21
416.431	2402.89655
416.744	2407.9714
417.057	2443.48666
417.37	2463.77422
417.683	2386.65492
417.995	2394.77613
418.308	2445.51565
418.621	2401.88154
418.934	2363.30204
419.246	2384.6245
419.559	2477.97252
419.872	2560.0711
420.184	2553.9926
420.497	2530.68738
420.809	2624.87962
421.121	2588.43135
421.434	2453.63107
421.746	2461.74569
422.058	2540.82092
422.371	2571.21383
422.683	2505.34798
422.995	2444.50116
423.307	2440.4431
423.619	2480.00065
423.931	2389.70047
424.243	2339.94262
424.555	2430.29706
424.867	2504.33424
425.179	2481.0147
425.491	2433.34101
425.802	2381.57877
426.114	2324.70471
426.426	2350.09969
426.737	2342.98987
427.049	2373.45627
427.361	2421.16457
427.672	2418.12018
427.984	2314.54457
428.295	2332.83194
428.606	2396.80631
428.918	2390.71563
429.229	2505.34798
429.54	2448.55902
429.851	2355.17776
430.163	2326.7366
430.474	2303.367
430.785	2390.71563
431.096	2385.63972
431.407	2347.0527
431.718	2363.30204
432.029	2388.6853
432.339	2330.80021
432.65	2350.09969
432.961	2375.48697
433.272	2308.4479
433.582	2377.51762
433.893	2396.80631
434.204	2340.95839
434.514	2296.25323
434.825	2273.89175
435.135	2375.48697
435.446	2425.22358
435.756	2368.37931
436.066	2403.91154
436.377	2482.02873
436.687	2466.81692
436.997	2371.42552
437.307	2435.37024
437.617	2487.0987
437.927	2366.34844
438.237	2338.92685
438.547	2387.67012
438.857	2373.45627
439.167	2449.57346
439.477	2489.1266
439.787	2484.05675
440.097	2530.68738
440.407	2493.18225
440.716	2457.68848
441.026	2469.85951
441.336	2543.86073
441.645	2508.38913
441.955	2380.5635
442.264	2414.06082
442.574	2575.26535
442.883	2561.08414
443.192	2490.14053
443.502	2512.44381
443.811	2515.48469
444.12	2460.73141
444.429	2365.33298
444.739	2299.30206
445.048	2364.31752
445.357	2397.82138
445.666	2368.37931
445.975	2413.04594
446.284	2379.54822
446.593	2355.17776
446.901	2354.16218
447.21	2382.59402
447.519	2332.83194
447.828	2321.6568
448.136	2382.59402
448.445	2436.38483
448.754	2410.00126
449.062	2374.47163
449.371	2542.84747
449.679	2556.01882
449.988	2551.96633
450.296	2669.40454
450.605	2642.08544
450.913	2737.15471
451.221	2987.40007
451.529	3016.60656
451.838	2876.50907
452.146	2736.14396
452.454	2832.10551
452.762	3045.80105
453.07	2897.69225
453.378	2736.14396
453.686	2754.33552
453.994	2848.25535
454.302	2819.99082
454.609	2584.3805
454.917	2525.62014
455.225	2640.06142
455.533	2650.18098
455.84	2582.355
456.148	2578.30385
456.455	2548.92682
456.763	2563.11019
457.07	2638.03735
457.378	2667.38123
457.685	2620.83064
457.993	2556.01882
458.3	2609.69489
458.607	2668.39289
458.915	2621.84291
459.222	2738.16546
459.529	2823.01968
459.836	2821.00045
460.143	2764.44006
460.45	2648.15718
460.757	2642.08544
461.064	2645.12137
461.371	2714.91498
461.678	2748.27215
461.985	2764.44006
462.292	2818.98118
462.598	2904.75194
462.905	3018.62036
463.212	3061.90321
463.518	3053.85259
463.825	3072.97131
464.131	3292.96162
464.438	3338.07809
464.744	3137.33293
465.051	3090.07314
465.357	3181.54709
465.664	3201.63511
465.97	3086.04955
466.276	3035.73534
466.582	2957.17393
466.889	2925.92692
467.195	3078.00169
467.501	3212.68103
467.807	3415.20815
468.113	3536.236
468.419	3682.98157
468.725	3834.3922
469.031	3918.92195
469.337	4115.45278
469.642	4101.57324
469.948	3948.73249
470.254	3899.04149
470.56	3774.66387
470.865	3571.20396
471.171	3464.24539
471.477	3424.21764
471.782	3299.98169
472.088	3232.75998
472.393	3396.18419
472.698	3308.00376
473.004	3107.17079
473.309	3215.69324
473.614	3317.02745
473.92	3336.07355
474.225	3339.08034
474.53	3347.09781
474.835	3321.0376
475.14	3348.09992
475.445	3389.17401
475.75	3267.88403
476.055	3122.25349
476.36	3054.85897
476.665	2974.30364
476.97	2907.77731
477.275	2971.28105
477.58	3001.50125
477.885	2996.46543
478.189	2937.01611
478.494	2899.70937
478.799	2890.63187
479.103	2855.31979
479.408	2830.08653
479.712	2851.28305
480.017	2903.74345
480.321	2917.86099
480.625	2915.84436
480.93	2992.43653
481.234	3123.25889
481.538	3250.82602
481.843	3391.17699
482.147	3483.25031
482.451	3517.24587
482.755	3597.16857
483.059	3621.12717
483.363	3622.12526
483.667	3720.86497
483.971	3679.98989
484.275	3608.15063
484.579	3771.67613
484.883	3837.3773
485.187	3760.71998
485.49	3751.75458
485.794	3695.94401
486.098	3630.10948
486.401	3556.21988
486.705	3569.20627
487.009	3561.21494
487.312	3573.20159
487.616	3666.02701
487.919	3589.18051
488.222	3507.24894
488.526	3515.2466
488.829	3563.21286
489.132	3592.17614
489.436	3529.24025
489.739	3506.24917
490.042	3522.24379
490.345	3670.01669
490.648	3734.81681
490.951	3627.11551
491.254	3672.01145
491.557	3740.79532
491.86	3772.67205
492.163	3923.89122
492.466	4022.21393
492.769	4037.10005
493.072	4164.01202
493.375	4294.68167
493.677	4279.84302
493.98	4282.81095
494.283	4194.71805
494.585	4083.72451
494.888	4088.6829
495.19	4091.65778
495.493	4035.11541
495.795	3910.97042
496.098	3890.09351
496.4	3938.79699
496.702	3890.09351
497.005	3865.23219
497.307	3957.6733
497.609	3899.04149
497.911	3768.68825
498.213	3713.88801
498.515	3708.90403
498.818	3753.74699
499.12	3790.59636
499.422	3776.65563
499.723	3818.46957
500.025	3930.84762
500.327	3867.22141
500.629	3797.56569
500.931	3819.46484
501.233	3751.75458
501.534	3768.68825
501.836	3848.32158
502.138	3867.22141
502.439	3894.07053
502.741	3888.10492
503.042	3921.90355
503.344	3950.71943
503.645	3969.5927
503.947	3944.75845
504.248	3920.9097
504.55	3996.40435
504.851	4127.34758
505.152	4109.50471
505.453	4008.31756
505.755	4043.05369
506.056	4030.15356
506.357	4035.11541
506.658	4091.65778
506.959	4006.33216
507.26	4076.78223
507.561	4064.87973
507.862	4000.37563
508.163	4067.85552
508.464	4049.00686
508.764	4045.03813
509.065	4010.30291
509.366	4128.33873
509.667	4210.56181
509.967	4090.66617
510.268	3934.82241
510.569	4011.29557
510.869	4079.75757
511.17	3924.88503
511.47	3981.51018
511.771	4069.83933
512.071	4134.28538
512.371	4108.51332
512.672	4020.22889
512.972	4048.0147
513.272	3995.4115
513.573	3925.87883
513.873	4019.23635
514.173	4046.03033
514.473	4015.26606
514.773	4099.59025
515.073	4077.77402
515.373	4072.81493
515.673	4107.52192
515.973	4093.64098
516.273	4044.04592
516.573	4020.22889
516.873	3976.54479
517.172	3986.47523
517.472	4011.29557
517.772	4001.36842
518.072	4035.11541
518.371	4067.85552
518.671	4049.00686
518.97	4062.8958
519.27	4045.03813
519.569	4065.87167
519.869	4081.74106
520.168	4035.11541
520.468	3990.44704
520.767	3909.97642
521.066	3924.88503
521.366	3972.57225
521.665	4008.31756
521.964	3944.75845
522.263	3948.73249
522.562	4066.8636
522.861	4038.09236
523.161	4031.14595
523.46	4012.28821
523.759	3964.62652
524.057	4052.97539
524.356	4072.81493
524.655	4049.00686
524.954	4021.22141
525.253	3983.49624
525.552	4053.96749
525.85	4068.84743
526.149	4038.09236
526.448	4049.99901
526.746	3915.94023
527.045	3813.49301
527.344	4019.23635
527.642	4156.08599
527.941	4071.82308
528.239	4025.19138
528.537	3979.52407
528.836	4013.28084
529.134	4001.36842
529.432	3967.60626
529.731	4035.11541
530.029	4022.21393
530.327	4016.25865
530.625	4049.00686
530.923	3986.47523
531.221	3968.59949
531.52	4028.16873
531.818	3990.44704
532.116	3936.80973
532.413	3918.92195
532.711	3892.08205
533.009	3957.6733
533.307	3947.739
533.605	3900.03564
533.903	3988.46116
534.2	4023.20642
534.498	3948.73249
534.796	3945.75198
535.093	3968.59949
535.391	3937.80337
535.689	3850.31128
535.986	3846.33184
536.284	3941.77778
536.581	3965.61978
536.878	4061.90381
537.176	4074.79861
537.473	4021.22141
537.77	3949.72597
538.068	3871.19969
538.365	3955.68655
538.662	4027.17629
538.959	3977.5379
539.256	3856.28001
539.554	3903.01802
539.851	4032.13834
540.148	3932.83504
540.445	3861.25358
540.742	3852.30091
541.039	3847.32672
541.335	3977.5379
541.632	4042.06145
541.929	3962.63995
542.226	3942.77135
542.523	3952.70632
542.819	3913.95234
543.116	3897.05315
543.413	3950.71943
543.709	3925.87883
544.006	4012.28821
544.302	4044.04592
544.599	3901.02978
544.895	3877.1667
545.192	3911.96441
545.488	4081.74106
545.785	4081.74106
546.081	3919.91583
546.377	3938.79699
546.673	3974.55855
546.97	3934.82241
547.266	3898.04733
547.562	3979.52407
547.858	3953.69974
548.154	3810.50691
548.45	3831.40698
548.746	3923.89122
549.042	3922.89739
549.338	3848.32158
549.634	3810.50691
549.93	3855.28526
550.226	3833.39714
550.522	3803.53886
550.818	3845.33695
551.113	3891.08779
551.409	3998.39002
551.705	3966.61303
552	3869.21058
552.296	3945.75198
552.592	3959.66
552.887	3909.97642
553.183	3970.58589
553.478	3904.01212
553.774	3806.52525
554.069	3877.1667
554.364	3935.81608
554.66	3851.3061
554.955	3771.67613
555.25	3837.3773
555.546	3910.97042
555.841	3952.70632
556.136	3839.36729
556.431	3737.80613
556.726	3773.66797
557.021	3765.70026
557.316	3762.71213
557.611	3751.75458
557.906	3779.64316
558.201	3756.7355
558.496	3772.67205
558.791	3858.26948
559.086	3758.72777
559.381	3767.69227
559.675	3867.22141
559.97	3823.44577
560.265	3808.51611
560.56	3751.75458
560.854	3709.90085
561.149	3755.73935
561.443	3695.94401
561.738	3640.08845
562.032	3654.05658
562.327	3598.16701
562.621	3622.12526
562.916	3681.98436
563.21	3676.00078
563.504	3598.16701
563.799	3490.25079
564.093	3545.22947
564.387	3515.2466
564.681	3606.15403
564.976	3677.99537
565.27	3538.23465
565.564	3589.18051
565.858	3595.17164
566.152	3528.2408
566.446	3466.24616
566.74	3416.20926
567.034	3417.21036
567.328	3466.24616
567.622	3633.10333
567.916	3627.11551
568.209	3522.24379
568.503	3527.24133
568.797	3473.24839
569.091	3493.25077
569.384	3427.22054
569.678	3378.15657
569.972	3461.24413
570.265	3450.23836
570.559	3365.13365
570.852	3416.20926
571.146	3428.22148
571.439	3342.087
571.733	3349.10203
572.026	3366.1355
572.319	3402.19233
572.613	3437.22925
572.906	3444.23446
573.199	3475.24889
573.492	3444.23446
573.786	3333.06662
574.079	3386.16943
574.372	3387.17098
574.665	3291.95869
574.958	3309.00645
575.251	3332.06429
575.544	3327.05238
575.837	3327.05238
576.13	3312.01443
576.423	3287.94683
576.716	3287.94683
577.009	3231.75617
577.301	3219.70933
577.594	3336.07355
577.887	3315.02229
578.18	3239.78623
578.472	3282.93168
578.765	3359.12224
579.057	3261.86404
579.35	3243.8009
579.643	3354.11232
579.935	3314.01968
580.228	3267.88403
580.52	3313.01707
580.813	3280.92552
581.105	3227.74079
581.397	3187.57411
581.69	3161.45324
581.982	3251.82955
582.274	3270.89382
582.566	3228.74466
582.859	3210.67281
583.151	3191.59183
583.443	3229.74851
583.735	3405.1962
584.027	3404.19492
584.319	3312.01443
584.611	3179.53797
584.903	3073.97742
585.195	3170.49619
585.487	3201.63511
585.779	3142.35868
586.071	3141.35356
586.363	3240.78992
586.654	3248.81892
586.946	3164.46769
587.238	3122.25349
587.529	3099.12536
587.821	3103.14819
588.113	3163.46289
588.404	3160.44839
588.696	3082.02574
588.987	3098.11961
589.279	3220.71331
589.57	3155.42395
589.862	3091.079
590.153	3080.01374
590.445	3085.04362
590.736	3136.32774
591.027	3180.54254
591.319	3231.75617
591.61	3170.49619
591.901	3021.64095
592.192	2979.34101
592.484	3023.6546
592.775	3026.67498
593.066	3120.24265
593.357	3239.78623
593.648	3155.42395
593.939	3017.61346
594.23	2987.40007
594.521	2972.28859
594.812	3063.91572
595.103	3108.17641
595.393	3039.7618
595.684	2984.37803
595.975	2977.32611
596.266	2951.12717
596.557	2994.45101
596.847	2947.09572
597.138	2824.02927
597.429	2786.6653
597.719	2829.07702
598.01	2855.31979
598.3	2777.57395
598.591	2768.4815
598.881	2905.76041
599.172	2877.51794
599.462	2850.27383
599.753	2857.33808
600.043	2732.1008
600.333	2672.4394
600.624	2680.53179
600.914	2766.46081
601.204	2804.8447
601.494	2754.33552
601.785	2759.38796
602.075	2767.47116
602.365	2657.2639
602.655	2674.46258
602.945	2689.63471
603.235	2697.7253
603.525	2710.87069
603.815	2656.25209
604.105	2680.53179
604.395	2703.79268
604.685	2644.1094
604.975	2692.66878
605.265	2737.15471
605.554	2661.31099
605.844	2757.36703
606.134	2738.16546
606.424	2620.83064
606.713	2605.64513
607.003	2566.14915
607.293	2611.71969
607.582	2669.40454
607.872	2626.90403
608.161	2541.8342
608.451	2532.71419
608.74	2596.53242
609.03	2579.31666
609.319	2529.67396
609.608	2507.37542
609.898	2486.08473
610.187	2510.4165
610.476	2495.21
610.766	2486.08473
611.055	2556.01882
611.344	2552.97947
611.633	2527.64708
611.922	2546.90042
612.211	2519.53903
612.501	2504.33424
612.79	2490.14053
613.079	2476.95844
613.368	2503.32048
613.657	2507.37542
613.946	2558.04499
614.234	2574.25249
614.523	2525.62014
614.812	2563.11019
615.101	2548.92682
615.39	2565.13617
615.679	2533.72758
615.967	2473.91612
616.256	2509.40282
616.545	2482.02873
616.833	2444.50116
617.122	2446.53012
617.411	2453.63107
617.699	2446.53012
617.988	2476.95844
618.276	2490.14053
618.565	2439.42855
618.853	2465.8027
619.141	2525.62014
619.43	2472.90199
619.718	2562.09717
620.007	2604.63266
620.295	2510.4165
620.583	2478.98659
620.871	2507.37542
621.16	2536.76766
621.448	2507.37542
621.736	2512.44381
622.024	2475.94435
622.312	2437.39942
622.6	2408.98633
622.888	2441.45763
623.176	2476.95844
623.464	2391.73077
623.752	2391.73077
624.04	2448.55902
624.328	2443.48666
624.616	2381.57877
624.904	2314.54457
625.192	2332.83194
625.479	2345.02131
625.767	2327.75252
626.055	2340.95839
626.343	2358.22446
626.63	2334.86363
626.918	2282.02388
627.206	2222.03103
627.493	2200.6674
627.781	2207.78921
628.068	2209.8239
628.356	2315.56064
628.643	2295.23692
628.931	2207.78921
629.218	2226.09969
629.505	2212.87585
629.793	2234.23641
630.08	2226.09969
630.367	2164.03151
630.655	2184.38673
630.942	2164.03151
631.229	2223.04821
631.516	2221.01384
631.804	2114.14055
632.091	2123.3064
632.378	2204.73708
632.665	2238.30448
632.952	2194.56251
633.239	2204.73708
633.526	2231.18523
633.813	2222.03103
634.1	2177.26296
634.387	2173.19196
634.674	2181.33376
634.961	2119.23281
635.247	2048.93245
635.534	2098.86193
635.821	2127.37979
636.108	2107.01087
636.394	2116.17749
636.681	2068.29638
636.968	2021.40758
637.255	2103.95511
637.541	2191.50991
637.828	2071.35344
638.114	2001.01292
638.401	2049.95172
638.687	1996.93339
638.974	1980.61323
639.26	2085.61822
639.547	2170.13859
639.833	2105.9923
640.119	2066.25828
640.406	2022.42718
640.692	1973.47215
640.978	2060.14369
641.265	2132.47126
641.551	2028.54453
641.837	1953.06562
642.123	2017.32905
642.409	2033.64198
642.696	1990.81371
642.982	1899.98461
643.268	1959.18811
643.554	2069.31541
643.84	2136.54421
644.126	2123.3064
644.412	2179.29838
644.698	2205.75447
644.984	2132.47126
645.269	2079.50504
645.555	2061.16282
645.841	2173.19196
646.127	2138.58061
646.413	2144.68952
646.698	2194.56251
646.984	2146.72573
647.27	2147.74381
647.556	2194.56251
647.841	2244.40622
648.127	2349.08404
648.412	2381.57877
648.698	2325.72066
648.984	2320.6408
649.269	2352.13096
649.554	2423.1941
649.84	2397.82138
650.125	2404.92652
650.411	2397.82138
650.696	2301.33455
650.982	2373.45627
651.267	2392.7459
651.552	2377.51762
651.837	2320.6408
652.123	2283.04034
652.408	2308.4479
652.693	2283.04034
652.978	2278.97442
653.263	2226.09969
653.549	2215.92769
653.834	2273.89175
654.119	2235.25345
654.404	2219.99663
654.689	2265.75883
654.974	2215.92769
655.259	2191.50991
655.544	2301.33455
655.828	2352.13096
656.113	2329.78432
656.398	2354.16218
656.683	2369.39473
656.968	1678.07809
657.253	808.7398
657.537	621.28009
657.822	579.93717
658.107	586.3047
658.391	592.66961
658.676	556.56681
658.961	554.44043
659.245	565.06931
659.53	561.88144
659.814	578.87566
660.099	595.8511
660.383	584.18248
660.668	554.44043
