Data from dark_beginning_ST026791__159__1257.txt Node

Date: Mon Aug 18 22:11:08 AEST 2025
User: mathewyoussef
Spectrometer: ST02679
Trigger mode: 0
Integration Time (sec): 6.653700E-1
Scans to average: 1
Nonlinearity correction enabled: true
Boxcar width: 0
Storing dark spectrum: false
XAxis mode: Wavelengths
Number of Pixels in Spectrum: 1516
>>>>>Begin Spectral Data<<<<<
187.304	544.86793
187.653	580.99861
188.002	590.54827
188.351	560.81866
188.7	549.12314
189.048	578.87566
189.397	613.86746
189.746	605.39171
190.094	608.57064
190.443	591.60898
190.791	565.06931
191.14	589.48748
191.488	568.25651
191.837	541.6757
192.185	544.86793
192.533	543.80393
192.881	579.93717
193.229	597.97173
193.577	593.73018
193.925	584.18248
194.273	578.87566
194.621	589.48748
194.969	584.18248
195.317	577.81408
195.664	580.99861
196.012	583.12126
196.359	558.69289
196.707	551.25029
197.054	556.56681
197.402	564.00676
197.749	573.56701
198.096	562.94414
198.443	564.00676
198.791	556.56681
199.138	556.56681
199.485	545.93185
199.832	551.25029
200.179	562.94414
200.525	565.06931
200.872	601.15215
201.219	618.10366
201.566	617.04472
201.912	607.51107
202.259	600.09208
202.605	570.38093
202.952	572.50506
203.298	564.00676
203.644	540.61148
203.991	569.31875
204.337	571.44303
204.683	582.05997
205.029	603.27207
205.375	574.62889
205.721	570.38093
206.067	602.21215
206.413	578.87566
206.759	559.75581
207.104	565.06931
207.45	574.62889
207.796	587.3657
208.141	599.03194
208.487	596.91145
208.832	576.75242
209.177	588.42663
209.523	590.54827
209.868	578.87566
210.213	566.13178
210.558	552.31374
210.903	570.38093
211.248	586.3047
211.593	566.13178
211.938	560.81866
212.283	602.21215
212.628	597.97173
212.973	572.50506
213.317	583.12126
213.662	571.44303
214.007	578.87566
214.351	588.42663
214.696	591.60898
215.04	591.60898
215.384	559.75581
215.729	559.75581
216.073	586.3047
216.417	594.79068
216.761	585.24363
217.105	588.42663
217.449	584.18248
217.793	585.24363
218.137	565.06931
218.481	583.12126
218.824	595.8511
219.168	575.69069
219.512	577.81408
219.855	567.19418
220.199	573.56701
220.542	572.50506
220.886	573.56701
221.229	572.50506
221.572	560.81866
221.916	545.93185
222.259	554.44043
222.602	554.44043
222.945	554.44043
223.288	574.62889
223.631	575.69069
223.974	555.50366
224.317	559.75581
224.659	552.31374
225.002	553.37712
225.345	571.44303
225.687	564.00676
226.03	575.69069
226.372	558.69289
226.715	542.73986
227.057	548.05945
227.4	561.88144
227.742	589.48748
228.084	587.3657
228.426	579.93717
228.768	592.66961
229.11	585.24363
229.452	597.97173
229.794	588.42663
230.136	548.05945
230.478	553.37712
230.82	551.25029
231.161	538.48278
231.503	573.56701
231.845	608.57064
232.186	615.9857
232.528	575.69069
232.869	541.6757
233.21	566.13178
233.552	572.50506
233.893	573.56701
234.234	561.88144
234.575	548.05945
234.916	586.3047
235.257	590.54827
235.598	577.81408
235.939	586.3047
236.28	574.62889
236.621	558.69289
236.961	569.31875
237.302	596.91145
237.643	594.79068
237.983	578.87566
238.324	579.93717
238.664	615.9857
239.005	578.87566
239.345	549.12314
239.685	571.44303
240.025	550.18675
240.366	541.6757
240.706	550.18675
241.046	546.99569
241.386	560.81866
241.726	560.81866
242.066	553.37712
242.405	578.87566
242.745	599.03194
243.085	584.18248
243.425	571.44303
243.764	591.60898
244.104	632.92172
244.443	642.44061
244.783	606.45143
245.122	570.38093
245.461	561.88144
245.801	557.62989
246.14	529.96488
246.479	555.50366
246.818	565.06931
247.157	571.44303
247.496	607.51107
247.835	589.48748
248.174	580.99861
248.513	585.24363
248.852	621.28009
249.19	600.09208
249.529	557.62989
249.868	562.94414
250.206	555.50366
250.545	564.00676
250.883	579.93717
251.221	579.93717
251.56	549.12314
251.898	553.37712
252.236	594.79068
252.574	607.51107
252.912	592.66961
253.25	571.44303
253.588	552.31374
253.926	574.62889
254.264	579.93717
254.602	562.94414
254.94	570.38093
255.278	568.25651
255.615	544.86793
255.953	544.86793
256.29	589.48748
256.628	599.03194
256.965	575.69069
257.303	564.00676
257.64	590.54827
257.977	588.42663
258.314	566.13178
258.652	570.38093
258.989	573.56701
259.326	573.56701
259.663	588.42663
260	595.8511
260.337	565.06931
260.673	541.6757
261.01	542.73986
261.347	578.87566
261.684	576.75242
262.02	575.69069
262.357	582.05997
262.693	559.75581
263.03	567.19418
263.366	587.3657
263.702	586.3047
264.039	585.24363
264.375	590.54827
264.711	571.44303
265.047	524.63863
265.383	540.61148
265.719	588.42663
266.055	584.18248
266.391	592.66961
266.727	575.69069
267.063	558.69289
267.399	576.75242
267.734	577.81408
268.07	567.19418
268.405	562.94414
268.741	562.94414
269.076	567.19418
269.412	565.06931
269.747	538.48278
270.082	537.41832
270.418	538.48278
270.753	551.25029
271.088	588.42663
271.423	588.42663
271.758	566.13178
272.093	567.19418
272.428	576.75242
272.763	577.81408
273.098	571.44303
273.433	543.80393
273.767	540.61148
274.102	549.12314
274.436	568.25651
274.771	597.97173
275.106	600.09208
275.44	599.03194
275.774	591.60898
276.109	573.56701
276.443	564.00676
276.777	572.50506
277.111	574.62889
277.445	568.25651
277.78	586.3047
278.114	603.27207
278.447	590.54827
278.781	557.62989
279.115	570.38093
279.449	583.12126
279.783	596.91145
280.116	596.91145
280.45	549.12314
280.784	572.50506
281.117	585.24363
281.451	572.50506
281.784	644.55518
282.117	623.39736
282.451	570.38093
282.784	577.81408
283.117	565.06931
283.45	557.62989
283.783	577.81408
284.116	618.10366
284.449	605.39171
284.782	604.33193
285.115	596.91145
285.448	589.48748
285.781	606.45143
286.114	583.12126
286.446	577.81408
286.779	579.93717
287.111	525.70404
287.444	527.83462
287.776	576.75242
288.109	585.24363
288.441	562.94414
288.773	568.25651
289.106	584.18248
289.438	573.56701
289.77	580.99861
290.102	585.24363
290.434	573.56701
290.766	566.13178
291.098	570.38093
291.43	569.31875
291.762	537.41832
292.094	549.12314
292.425	590.54827
292.757	589.48748
293.089	583.12126
293.42	560.81866
293.752	533.15969
294.083	560.81866
294.414	596.91145
294.746	593.73018
295.077	599.03194
295.408	621.28009
295.74	609.63015
296.071	576.75242
296.402	560.81866
296.733	556.56681
297.064	567.19418
297.395	570.38093
297.726	584.18248
298.056	589.48748
298.387	575.69069
298.718	591.60898
299.049	614.92662
299.379	603.27207
299.71	577.81408
300.04	540.61148
300.371	519.31038
300.701	551.25029
301.031	609.63015
301.362	611.74894
301.692	610.68958
302.022	594.79068
302.352	569.31875
302.682	562.94414
303.012	549.12314
303.342	549.12314
303.672	572.50506
304.002	601.15215
304.332	592.66961
304.662	574.62889
304.992	558.69289
305.321	567.19418
305.651	561.88144
305.98	569.31875
306.31	569.31875
306.639	549.12314
306.969	542.73986
307.298	548.05945
307.628	576.75242
307.957	573.56701
308.286	541.6757
308.615	554.44043
308.944	596.91145
309.273	597.97173
309.602	586.3047
309.931	608.57064
310.26	596.91145
310.589	567.19418
310.918	585.24363
311.247	594.79068
311.575	574.62889
311.904	578.87566
312.233	587.3657
312.561	553.37712
312.89	550.18675
313.218	612.80824
313.546	636.09528
313.875	594.79068
314.203	550.18675
314.531	550.18675
314.859	558.69289
315.188	557.62989
315.516	591.60898
315.844	591.60898
316.172	601.15215
316.5	610.68958
316.827	577.81408
317.155	571.44303
317.483	562.94414
317.811	546.99569
318.138	565.06931
318.466	572.50506
318.794	571.44303
319.121	588.42663
319.449	591.60898
319.776	571.44303
320.103	556.56681
320.431	588.42663
320.758	577.81408
321.085	587.3657
321.412	605.39171
321.739	564.00676
322.066	587.3657
322.393	582.05997
322.72	574.62889
323.047	589.48748
323.374	576.75242
323.701	579.93717
324.028	604.33193
324.354	596.91145
324.681	571.44303
325.008	590.54827
325.334	580.99861
325.661	552.31374
325.987	579.93717
326.314	589.48748
326.64	577.81408
326.966	562.94414
327.293	577.81408
327.619	589.48748
327.945	559.75581
328.271	562.94414
328.597	578.87566
328.923	578.87566
329.249	590.54827
329.575	576.75242
329.901	534.22446
330.227	568.25651
330.552	596.91145
330.878	601.15215
331.204	600.09208
331.529	582.05997
331.855	596.91145
332.18	623.39736
332.506	622.33876
332.831	582.05997
333.156	567.19418
333.482	589.48748
333.807	617.04472
334.132	607.51107
334.457	589.48748
334.782	580.99861
335.107	583.12126
335.432	583.12126
335.757	561.88144
336.082	578.87566
336.407	573.56701
336.732	560.81866
337.057	583.12126
337.381	582.05997
337.706	562.94414
338.031	599.03194
338.355	595.8511
338.68	558.69289
339.004	565.06931
339.329	593.73018
339.653	609.63015
339.977	586.3047
340.301	553.37712
340.626	545.93185
340.95	557.62989
341.274	552.31374
341.598	565.06931
341.922	594.79068
342.246	596.91145
342.57	582.05997
342.894	594.79068
343.218	592.66961
343.541	572.50506
343.865	576.75242
344.189	582.05997
344.512	587.3657
344.836	582.05997
345.159	566.13178
345.483	569.31875
345.806	561.88144
346.13	564.00676
346.453	595.8511
346.776	582.05997
347.099	558.69289
347.423	556.56681
347.746	552.31374
348.069	556.56681
348.392	567.19418
348.715	566.13178
349.038	550.18675
349.361	550.18675
349.683	562.94414
350.006	582.05997
350.329	582.05997
350.652	586.3047
350.974	562.94414
351.297	546.99569
351.619	551.25029
351.942	558.69289
352.264	603.27207
352.587	571.44303
352.909	548.05945
353.231	561.88144
353.554	542.73986
353.876	544.86793
354.198	545.93185
354.52	551.25029
354.842	554.44043
355.164	553.37712
355.486	552.31374
355.808	568.25651
356.13	582.05997
356.452	607.51107
356.773	610.68958
357.095	592.66961
357.417	584.18248
357.738	572.50506
358.06	588.42663
358.381	583.12126
358.703	574.62889
359.024	590.54827
359.346	593.73018
359.667	566.13178
359.988	555.50366
360.309	573.56701
360.631	565.06931
360.952	546.99569
361.273	557.62989
361.594	580.99861
361.915	610.68958
362.236	600.09208
362.557	572.50506
362.878	573.56701
363.198	559.75581
363.519	564.00676
363.84	561.88144
364.16	541.6757
364.481	572.50506
364.802	568.25651
365.122	562.94414
365.443	597.97173
365.763	583.12126
366.083	557.62989
366.404	544.86793
366.724	561.88144
367.044	586.3047
367.364	567.19418
367.685	548.05945
368.005	560.81866
368.325	554.44043
368.645	552.31374
368.965	576.75242
369.284	589.48748
369.604	586.3047
369.924	582.05997
370.244	601.15215
370.564	594.79068
370.883	555.50366
371.203	582.05997
371.522	570.38093
371.842	589.48748
372.161	620.22135
372.481	578.87566
372.8	585.24363
373.119	590.54827
373.439	592.66961
373.758	585.24363
374.077	565.06931
374.396	567.19418
374.715	578.87566
375.034	562.94414
375.353	567.19418
375.672	604.33193
375.991	585.24363
376.31	554.44043
376.629	569.31875
376.948	577.81408
377.266	582.05997
377.585	579.93717
377.904	558.69289
378.222	540.61148
378.541	560.81866
378.859	569.31875
379.178	556.56681
379.496	569.31875
379.814	579.93717
380.133	556.56681
380.451	544.86793
380.769	549.12314
381.087	569.31875
381.405	577.81408
381.723	578.87566
382.041	603.27207
382.359	602.21215
382.677	603.27207
382.995	591.60898
383.313	556.56681
383.631	554.44043
383.949	559.75581
384.266	574.62889
384.584	576.75242
384.901	590.54827
385.219	612.80824
385.537	568.25651
385.854	559.75581
386.171	557.62989
386.489	540.61148
386.806	585.24363
387.123	580.99861
387.441	588.42663
387.758	613.86746
388.075	593.73018
388.392	580.99861
388.709	570.38093
389.026	549.12314
389.343	575.69069
389.66	600.09208
389.977	558.69289
390.294	553.37712
390.61	565.06931
390.927	597.97173
391.244	601.15215
391.56	584.18248
391.877	585.24363
392.193	587.3657
392.51	572.50506
392.826	550.18675
393.143	549.12314
393.459	543.80393
393.775	568.25651
394.092	586.3047
394.408	575.69069
394.724	574.62889
395.04	570.38093
395.356	592.66961
395.672	610.68958
395.988	579.93717
396.304	534.22446
396.62	538.48278
396.936	578.87566
397.252	587.3657
397.567	582.05997
397.883	567.19418
398.199	578.87566
398.514	599.03194
398.83	591.60898
399.146	586.3047
399.461	590.54827
399.777	597.97173
400.092	597.97173
400.407	582.05997
400.723	583.12126
401.038	575.69069
401.353	536.35378
401.668	548.05945
401.983	587.3657
402.298	584.18248
402.613	582.05997
402.928	573.56701
403.243	573.56701
403.558	597.97173
403.873	611.74894
404.188	604.33193
404.503	583.12126
404.817	557.62989
405.132	542.73986
405.447	546.99569
405.761	565.06931
406.076	602.21215
406.39	588.42663
406.705	590.54827
407.019	606.45143
407.334	571.44303
407.648	571.44303
407.962	580.99861
408.276	564.00676
408.591	573.56701
408.905	591.60898
409.219	593.73018
409.533	586.3047
409.847	568.25651
410.161	540.61148
410.475	546.99569
410.789	575.69069
411.102	566.13178
411.416	570.38093
411.73	586.3047
412.044	592.66961
412.357	599.03194
412.671	589.48748
412.984	578.87566
413.298	562.94414
413.611	579.93717
413.925	603.27207
414.238	590.54827
414.552	576.75242
414.865	565.06931
415.178	571.44303
415.491	583.12126
415.804	594.79068
416.118	595.8511
416.431	579.93717
416.744	567.19418
417.057	549.12314
417.37	566.13178
417.683	554.44043
417.995	540.61148
418.308	582.05997
418.621	579.93717
418.934	564.00676
419.246	557.62989
419.559	550.18675
419.872	558.69289
420.184	546.99569
420.497	554.44043
420.809	564.00676
421.121	549.12314
421.434	569.31875
421.746	570.38093
422.058	570.38093
422.371	566.13178
422.683	537.41832
422.995	542.73986
423.307	558.69289
423.619	570.38093
423.931	558.69289
424.243	540.61148
424.555	561.88144
424.867	610.68958
425.179	609.63015
425.491	618.10366
425.802	603.27207
426.114	551.25029
426.426	568.25651
426.737	566.13178
427.049	559.75581
427.361	595.8511
427.672	604.33193
427.984	537.41832
428.295	536.35378
428.606	575.69069
428.918	572.50506
429.229	612.80824
429.54	624.4559
429.851	605.39171
430.163	580.99861
430.474	549.12314
430.785	580.99861
431.096	617.04472
431.407	592.66961
431.718	568.25651
432.029	591.60898
432.339	566.13178
432.65	552.31374
432.961	569.31875
433.272	559.75581
433.582	576.75242
433.893	586.3047
434.204	580.99861
434.514	579.93717
434.825	564.00676
435.135	568.25651
435.446	606.45143
435.756	609.63015
436.066	579.93717
436.377	589.48748
436.687	596.91145
436.997	569.31875
437.307	566.13178
437.617	584.18248
437.927	572.50506
438.237	580.99861
438.547	587.3657
438.857	570.38093
439.167	566.13178
439.477	578.87566
439.787	579.93717
440.097	550.18675
440.407	548.05945
440.716	550.18675
441.026	564.00676
441.336	585.24363
441.645	582.05997
441.955	579.93717
442.264	589.48748
442.574	588.42663
442.883	570.38093
443.192	561.88144
443.502	595.8511
443.811	629.74755
444.12	623.39736
444.429	584.18248
444.739	553.37712
445.048	559.75581
445.357	574.62889
445.666	576.75242
445.975	570.38093
446.284	572.50506
446.593	553.37712
446.901	553.37712
447.21	559.75581
447.519	561.88144
447.828	577.81408
448.136	584.18248
448.445	579.93717
448.754	555.50366
449.062	570.38093
449.371	589.48748
449.679	574.62889
449.988	560.81866
450.296	539.54717
450.605	550.18675
450.913	574.62889
451.221	612.80824
451.529	606.45143
451.838	565.06931
452.146	566.13178
452.454	580.99861
452.762	605.39171
453.07	601.15215
453.378	591.60898
453.686	596.91145
453.994	599.03194
454.302	582.05997
454.609	586.3047
454.917	587.3657
455.225	583.12126
455.533	596.91145
455.84	577.81408
456.148	564.00676
456.455	605.39171
456.763	596.91145
457.07	596.91145
457.378	615.9857
457.685	585.24363
457.993	571.44303
458.3	565.06931
458.607	568.25651
458.915	546.99569
459.222	562.94414
459.529	618.10366
459.836	607.51107
460.143	557.62989
460.45	557.62989
460.757	575.69069
461.064	573.56701
461.371	578.87566
461.678	593.73018
461.985	585.24363
462.292	586.3047
462.598	575.69069
462.905	561.88144
463.212	587.3657
463.518	593.73018
463.825	595.8511
464.131	606.45143
464.438	621.28009
464.744	620.22135
465.051	596.91145
465.357	578.87566
465.664	594.79068
465.97	601.15215
466.276	556.56681
466.582	552.31374
466.889	575.69069
467.195	575.69069
467.501	577.81408
467.807	597.97173
468.113	572.50506
468.419	562.94414
468.725	604.33193
469.031	571.44303
469.337	575.69069
469.642	595.8511
469.948	593.73018
470.254	591.60898
470.56	561.88144
470.865	558.69289
471.171	573.56701
471.477	585.24363
471.782	569.31875
472.088	567.19418
472.393	602.21215
472.698	592.66961
473.004	549.12314
473.309	553.37712
473.614	576.75242
473.92	556.56681
474.225	559.75581
474.53	575.69069
474.835	566.13178
475.14	575.69069
475.445	586.3047
475.75	585.24363
476.055	560.81866
476.36	552.31374
476.665	576.75242
476.97	569.31875
477.275	555.50366
477.58	548.05945
477.885	540.61148
478.189	578.87566
478.494	593.73018
478.799	603.27207
479.103	577.81408
479.408	550.18675
479.712	570.38093
480.017	601.15215
480.321	592.66961
480.625	554.44043
480.93	552.31374
481.234	539.54717
481.538	558.69289
481.843	562.94414
482.147	555.50366
482.451	573.56701
482.755	571.44303
483.059	564.00676
483.363	585.24363
483.667	570.38093
483.971	541.6757
484.275	557.62989
484.579	552.31374
484.883	571.44303
485.187	552.31374
485.49	555.50366
485.794	567.19418
486.098	556.56681
486.401	584.18248
486.705	579.93717
487.009	556.56681
487.312	539.54717
487.616	573.56701
487.919	604.33193
488.222	591.60898
488.526	580.99861
488.829	615.9857
489.132	613.86746
489.436	574.62889
489.739	578.87566
490.042	577.81408
490.345	562.94414
490.648	575.69069
490.951	582.05997
491.254	561.88144
491.557	573.56701
491.86	592.66961
492.163	590.54827
492.466	567.19418
492.769	574.62889
493.072	590.54827
493.375	579.93717
493.677	568.25651
493.98	567.19418
494.283	578.87566
494.585	584.18248
494.888	575.69069
495.19	579.93717
495.493	576.75242
495.795	585.24363
496.098	628.68935
496.4	608.57064
496.702	589.48748
497.005	595.8511
497.307	605.39171
497.609	586.3047
497.911	555.50366
498.213	548.05945
498.515	571.44303
498.818	587.3657
499.12	556.56681
499.422	565.06931
499.723	579.93717
500.025	619.16254
500.327	623.39736
500.629	588.42663
500.931	557.62989
501.233	555.50366
501.534	578.87566
501.836	567.19418
502.138	578.87566
502.439	574.62889
502.741	553.37712
503.042	565.06931
503.344	582.05997
503.645	580.99861
503.947	594.79068
504.248	600.09208
504.55	564.00676
504.851	578.87566
505.152	603.27207
505.453	582.05997
505.755	577.81408
506.056	588.42663
506.357	575.69069
506.658	568.25651
506.959	588.42663
507.26	611.74894
507.561	624.4559
507.862	591.60898
508.163	565.06931
508.464	564.00676
508.764	569.31875
509.065	561.88144
509.366	599.03194
509.667	608.57064
509.967	577.81408
510.268	573.56701
510.569	574.62889
510.869	575.69069
511.17	529.96488
511.47	546.99569
511.771	585.24363
512.071	589.48748
512.371	577.81408
512.672	552.31374
512.972	569.31875
513.272	594.79068
513.573	584.18248
513.873	555.50366
514.173	561.88144
514.473	578.87566
514.773	567.19418
515.073	573.56701
515.373	587.3657
515.673	577.81408
515.973	557.62989
516.273	561.88144
516.573	582.05997
516.873	561.88144
517.172	565.06931
517.472	567.19418
517.772	557.62989
518.072	546.99569
518.371	568.25651
518.671	600.09208
518.97	572.50506
519.27	571.44303
519.569	604.33193
519.869	585.24363
520.168	565.06931
520.468	560.81866
520.767	556.56681
521.066	584.18248
521.366	579.93717
521.665	578.87566
521.964	599.03194
522.263	600.09208
522.562	591.60898
522.861	575.69069
523.161	569.31875
523.46	576.75242
523.759	594.79068
524.057	583.12126
524.356	572.50506
524.655	579.93717
524.954	572.50506
525.253	588.42663
525.552	588.42663
525.85	557.62989
526.149	551.25029
526.448	566.13178
526.746	554.44043
527.045	544.86793
527.344	572.50506
527.642	597.97173
527.941	620.22135
528.239	615.9857
528.537	603.27207
528.836	592.66961
529.134	554.44043
529.432	555.50366
529.731	577.81408
530.029	574.62889
530.327	568.25651
530.625	575.69069
530.923	597.97173
531.221	600.09208
531.52	582.05997
531.818	565.06931
532.116	566.13178
532.413	573.56701
532.711	568.25651
533.009	578.87566
533.307	608.57064
533.605	600.09208
533.903	589.48748
534.2	589.48748
534.498	561.88144
534.796	578.87566
535.093	577.81408
535.391	548.05945
535.689	561.88144
535.986	582.05997
536.284	593.73018
536.581	582.05997
536.878	593.73018
537.176	594.79068
537.473	580.99861
537.77	562.94414
538.068	553.37712
538.365	574.62889
538.662	569.31875
538.959	566.13178
539.256	580.99861
539.554	578.87566
539.851	570.38093
540.148	576.75242
540.445	588.42663
540.742	571.44303
541.039	566.13178
541.335	610.68958
541.632	610.68958
541.929	584.18248
542.226	595.8511
542.523	580.99861
542.819	561.88144
543.116	579.93717
543.413	571.44303
543.709	556.56681
544.006	564.00676
544.302	571.44303
544.599	571.44303
544.895	556.56681
545.192	569.31875
545.488	618.10366
545.785	608.57064
546.081	593.73018
546.377	588.42663
546.673	564.00676
546.97	583.12126
547.266	595.8511
547.562	584.18248
547.858	589.48748
548.154	591.60898
548.45	571.44303
548.746	572.50506
549.042	589.48748
549.338	569.31875
549.634	565.06931
549.93	590.54827
550.226	594.79068
550.522	607.51107
550.818	608.57064
551.113	575.69069
551.409	552.31374
551.705	538.48278
552	522.50757
552.296	552.31374
552.592	583.12126
552.887	596.91145
553.183	600.09208
553.478	580.99861
553.774	567.19418
554.069	572.50506
554.364	591.60898
554.66	582.05997
554.955	564.00676
555.25	584.18248
555.546	596.91145
555.841	582.05997
556.136	572.50506
556.431	568.25651
556.726	580.99861
557.021	577.81408
557.316	569.31875
557.611	586.3047
557.906	587.3657
558.201	572.50506
558.496	588.42663
558.791	599.03194
559.086	574.62889
559.381	567.19418
559.675	577.81408
559.97	595.8511
560.265	607.51107
560.56	590.54827
560.854	576.75242
561.149	557.62989
561.443	568.25651
561.738	578.87566
562.032	565.06931
562.327	568.25651
562.621	559.75581
562.916	561.88144
563.21	577.81408
563.504	573.56701
563.799	567.19418
564.093	574.62889
564.387	560.81866
564.681	561.88144
564.976	574.62889
565.27	572.50506
565.564	590.54827
565.858	575.69069
566.152	557.62989
566.446	558.69289
566.74	560.81866
567.034	577.81408
567.328	608.57064
567.622	628.68935
567.916	595.8511
568.209	571.44303
568.503	594.79068
568.797	593.73018
569.091	557.62989
569.384	539.54717
569.678	568.25651
569.972	592.66961
570.265	603.27207
570.559	584.18248
570.852	558.69289
571.146	560.81866
571.439	590.54827
571.733	617.04472
572.026	571.44303
572.319	572.50506
572.613	588.42663
572.906	574.62889
573.199	610.68958
573.492	613.86746
573.786	585.24363
574.079	604.33193
574.372	600.09208
574.665	565.06931
574.958	568.25651
575.251	568.25651
575.544	592.66961
575.837	595.8511
576.13	560.81866
576.423	588.42663
576.716	596.91145
577.009	579.93717
577.301	600.09208
577.594	589.48748
577.887	560.81866
578.18	555.50366
578.472	561.88144
578.765	580.99861
579.057	567.19418
579.35	566.13178
579.643	562.94414
579.935	548.05945
580.228	582.05997
580.52	590.54827
580.813	592.66961
581.105	597.97173
581.397	559.75581
581.69	575.69069
581.982	621.28009
582.274	601.15215
582.566	583.12126
582.859	572.50506
583.151	554.44043
583.443	548.05945
583.735	582.05997
584.027	601.15215
584.319	541.6757
584.611	539.54717
584.903	589.48748
585.195	596.91145
585.487	571.44303
585.779	553.37712
586.071	570.38093
586.363	596.91145
586.654	577.81408
586.946	566.13178
587.238	574.62889
587.529	569.31875
587.821	568.25651
588.113	552.31374
588.404	565.06931
588.696	584.18248
588.987	559.75581
589.279	610.68958
589.57	610.68958
589.862	551.25029
590.153	571.44303
590.445	574.62889
590.736	570.38093
591.027	575.69069
591.319	577.81408
591.61	569.31875
591.901	558.69289
592.192	552.31374
592.484	574.62889
592.775	592.66961
593.066	600.09208
593.357	615.9857
593.648	613.86746
593.939	622.33876
594.23	601.15215
594.521	560.81866
594.812	565.06931
595.103	599.03194
595.393	611.74894
595.684	592.66961
595.975	578.87566
596.266	575.69069
596.557	583.12126
596.847	588.42663
597.138	576.75242
597.429	559.75581
597.719	584.18248
598.01	586.3047
598.3	583.12126
598.591	583.12126
598.881	588.42663
599.172	595.8511
599.462	579.93717
599.753	572.50506
600.043	572.50506
600.333	576.75242
600.624	573.56701
600.914	601.15215
601.204	600.09208
601.494	593.73018
601.785	601.15215
602.075	596.91145
602.365	604.33193
602.655	588.42663
602.945	568.25651
603.235	558.69289
603.525	569.31875
603.815	588.42663
604.105	578.87566
604.395	590.54827
604.685	593.73018
604.975	615.9857
605.265	612.80824
605.554	582.05997
605.844	611.74894
606.134	591.60898
606.424	568.25651
606.713	584.18248
607.003	608.57064
607.293	618.10366
607.582	585.24363
607.872	586.3047
608.161	589.48748
608.451	549.12314
608.74	568.25651
609.03	600.09208
609.319	572.50506
609.608	543.80393
609.898	551.25029
610.187	574.62889
610.476	579.93717
610.766	559.75581
611.055	533.15969
611.344	550.18675
611.633	591.60898
611.922	593.73018
612.211	569.31875
612.501	590.54827
612.79	604.33193
613.079	588.42663
613.368	591.60898
613.657	589.48748
613.946	580.99861
614.234	585.24363
614.523	604.33193
614.812	611.74894
615.101	583.12126
615.39	586.3047
615.679	612.80824
615.967	588.42663
616.256	608.57064
616.545	593.73018
616.833	548.05945
617.122	565.06931
617.411	573.56701
617.699	574.62889
617.988	576.75242
618.276	582.05997
618.565	594.79068
618.853	580.99861
619.141	545.93185
619.43	565.06931
619.718	610.68958
620.007	593.73018
620.295	577.81408
620.583	592.66961
620.871	584.18248
621.16	567.19418
621.448	560.81866
621.736	574.62889
622.024	571.44303
622.312	583.12126
622.6	575.69069
622.888	577.81408
623.176	586.3047
623.464	555.50366
623.752	603.27207
624.04	613.86746
624.328	565.06931
624.616	565.06931
624.904	574.62889
625.192	580.99861
625.479	594.79068
625.767	588.42663
626.055	593.73018
626.343	605.39171
626.63	595.8511
626.918	601.15215
627.206	596.91145
627.493	564.00676
627.781	551.25029
628.068	604.33193
628.356	604.33193
628.643	562.94414
628.931	573.56701
629.218	580.99861
629.505	596.91145
629.793	601.15215
630.08	569.31875
630.367	562.94414
630.655	579.93717
630.942	582.05997
631.229	585.24363
631.516	594.79068
631.804	586.3047
632.091	582.05997
632.378	583.12126
632.665	561.88144
632.952	556.56681
633.239	579.93717
633.526	570.38093
633.813	562.94414
634.1	580.99861
634.387	600.09208
634.674	596.91145
634.961	571.44303
635.247	555.50366
635.534	546.99569
635.821	562.94414
636.108	586.3047
636.394	591.60898
636.681	579.93717
636.968	574.62889
637.255	574.62889
637.541	592.66961
637.828	595.8511
638.114	587.3657
638.401	625.51436
638.687	607.51107
638.974	566.13178
639.26	606.45143
639.547	595.8511
639.833	571.44303
640.119	576.75242
640.406	584.18248
640.692	594.79068
640.978	593.73018
641.265	583.12126
641.551	570.38093
641.837	587.3657
642.123	579.93717
642.409	571.44303
642.696	594.79068
642.982	583.12126
643.268	561.88144
643.554	585.24363
643.84	612.80824
644.126	605.39171
644.412	607.51107
644.698	605.39171
644.984	600.09208
645.269	585.24363
645.555	583.12126
645.841	597.97173
646.127	596.91145
646.413	585.24363
646.698	556.56681
646.984	579.93717
647.27	603.27207
647.556	605.39171
647.841	596.91145
648.127	607.51107
648.412	605.39171
648.698	584.18248
648.984	586.3047
649.269	577.81408
649.554	583.12126
649.84	583.12126
650.125	586.3047
650.411	590.54827
650.696	569.31875
650.982	561.88144
651.267	597.97173
651.552	586.3047
651.837	548.05945
652.123	571.44303
652.408	583.12126
652.693	565.06931
652.978	572.50506
653.263	567.19418
653.549	586.3047
653.834	622.33876
654.119	588.42663
654.404	553.37712
654.689	585.24363
654.974	582.05997
655.259	557.62989
655.544	578.87566
655.828	594.79068
656.113	570.38093
656.398	551.25029
656.683	583.12126
656.968	565.06931
657.253	558.69289
657.537	578.87566
657.822	569.31875
658.107	569.31875
658.391	560.81866
658.676	572.50506
658.961	590.54827
659.245	583.12126
659.53	573.56701
659.814	565.06931
660.099	572.50506
660.383	561.88144
660.668	541.6757
