Data from dark_beginning_ST026791__117__1215.txt Node

Date: Mon Aug 18 22:10:11 AEST 2025
User: mathewyoussef
Spectrometer: ST02679
Trigger mode: 0
Integration Time (sec): 6.653700E-1
Scans to average: 1
Nonlinearity correction enabled: true
Boxcar width: 0
Storing dark spectrum: false
XAxis mode: Wavelengths
Number of Pixels in Spectrum: 1516
>>>>>Begin Spectral Data<<<<<
187.304	590.54827
187.653	592.66961
188.002	582.05997
188.351	553.37712
188.7	564.00676
189.048	569.31875
189.397	568.25651
189.746	557.62989
190.094	529.96488
190.443	545.93185
190.791	567.19418
191.14	578.87566
191.488	566.13178
191.837	574.62889
192.185	582.05997
192.533	577.81408
192.881	567.19418
193.229	548.05945
193.577	587.3657
193.925	575.69069
194.273	561.88144
194.621	574.62889
194.969	584.18248
195.317	593.73018
195.664	590.54827
196.012	585.24363
196.359	583.12126
196.707	597.97173
197.054	569.31875
197.402	546.99569
197.749	556.56681
198.096	579.93717
198.443	568.25651
198.791	549.12314
199.138	564.00676
199.485	572.50506
199.832	568.25651
200.179	570.38093
200.525	557.62989
200.872	557.62989
201.219	567.19418
201.566	567.19418
201.912	592.66961
202.259	585.24363
202.605	565.06931
202.952	587.3657
203.298	601.15215
203.644	560.81866
203.991	538.48278
204.337	565.06931
204.683	570.38093
205.029	564.00676
205.375	575.69069
205.721	604.33193
206.067	605.39171
206.413	567.19418
206.759	557.62989
207.104	552.31374
207.45	552.31374
207.796	559.75581
208.141	553.37712
208.487	553.37712
208.832	544.86793
209.177	553.37712
209.523	572.50506
209.868	569.31875
210.213	559.75581
210.558	571.44303
210.903	597.97173
211.248	575.69069
211.593	557.62989
211.938	574.62889
212.283	589.48748
212.628	588.42663
212.973	551.25029
213.317	541.6757
213.662	541.6757
214.007	566.13178
214.351	577.81408
214.696	572.50506
215.04	593.73018
215.384	587.3657
215.729	559.75581
216.073	546.99569
216.417	590.54827
216.761	584.18248
217.105	543.80393
217.449	574.62889
217.793	602.21215
218.137	613.86746
218.481	576.75242
218.824	561.88144
219.168	574.62889
219.512	565.06931
219.855	556.56681
220.199	548.05945
220.542	543.80393
220.886	554.44043
221.229	575.69069
221.572	569.31875
221.916	564.00676
222.259	576.75242
222.602	550.18675
222.945	528.89979
223.288	549.12314
223.631	559.75581
223.974	553.37712
224.317	544.86793
224.659	561.88144
225.002	575.69069
225.345	565.06931
225.687	575.69069
226.03	614.92662
226.372	590.54827
226.715	567.19418
227.057	577.81408
227.4	552.31374
227.742	560.81866
228.084	569.31875
228.426	561.88144
228.768	564.00676
229.11	555.50366
229.452	546.99569
229.794	527.83462
230.136	557.62989
230.478	582.05997
230.82	566.13178
231.161	570.38093
231.503	590.54827
231.845	599.03194
232.186	602.21215
232.528	580.99861
232.869	553.37712
233.21	559.75581
233.552	561.88144
233.893	554.44043
234.234	567.19418
234.575	597.97173
234.916	611.74894
235.257	587.3657
235.598	587.3657
235.939	613.86746
236.28	559.75581
236.621	518.24449
236.961	579.93717
237.302	618.10366
237.643	592.66961
237.983	578.87566
238.324	577.81408
238.664	573.56701
239.005	572.50506
239.345	578.87566
239.685	589.48748
240.025	588.42663
240.366	583.12126
240.706	574.62889
241.046	580.99861
241.386	586.3047
241.726	566.13178
242.066	553.37712
242.405	548.05945
242.745	585.24363
243.085	585.24363
243.425	559.75581
243.764	586.3047
244.104	603.27207
244.443	597.97173
244.783	569.31875
245.122	550.18675
245.461	556.56681
245.801	572.50506
246.14	583.12126
246.479	578.87566
246.818	567.19418
247.157	566.13178
247.496	596.91145
247.835	565.06931
248.174	556.56681
248.513	594.79068
248.852	625.51436
249.19	603.27207
249.529	570.38093
249.868	586.3047
250.206	583.12126
250.545	584.18248
250.883	545.93185
251.221	536.35378
251.56	553.37712
251.898	553.37712
252.236	586.3047
252.574	592.66961
252.912	572.50506
253.25	549.12314
253.588	531.0299
253.926	568.25651
254.264	577.81408
254.602	573.56701
254.94	565.06931
255.278	548.05945
255.615	575.69069
255.953	576.75242
256.29	541.6757
256.628	555.50366
256.965	573.56701
257.303	558.69289
257.64	570.38093
257.977	560.81866
258.314	537.41832
258.652	535.28916
258.989	562.94414
259.326	574.62889
259.663	593.73018
260	612.80824
260.337	561.88144
260.673	528.89979
261.01	545.93185
261.347	582.05997
261.684	579.93717
262.02	568.25651
262.357	591.60898
262.693	567.19418
263.03	548.05945
263.366	572.50506
263.702	569.31875
264.039	572.50506
264.375	565.06931
264.711	569.31875
265.047	585.24363
265.383	574.62889
265.719	562.94414
266.055	574.62889
266.391	588.42663
266.727	566.13178
267.063	559.75581
267.399	585.24363
267.734	612.80824
268.07	582.05997
268.405	550.18675
268.741	604.33193
269.076	602.21215
269.412	549.12314
269.747	568.25651
270.082	575.69069
270.418	559.75581
270.753	577.81408
271.088	591.60898
271.423	592.66961
271.758	571.44303
272.093	564.00676
272.428	575.69069
272.763	567.19418
273.098	546.99569
273.433	567.19418
273.767	585.24363
274.102	577.81408
274.436	578.87566
274.771	599.03194
275.106	606.45143
275.44	582.05997
275.774	588.42663
276.109	566.13178
276.443	538.48278
276.777	535.28916
277.111	564.00676
277.445	577.81408
277.78	566.13178
278.114	588.42663
278.447	579.93717
278.781	572.50506
279.115	560.81866
279.449	553.37712
279.783	568.25651
280.116	587.3657
280.45	576.75242
280.784	559.75581
281.117	566.13178
281.451	546.99569
281.784	579.93717
282.117	585.24363
282.451	536.35378
282.784	555.50366
283.117	587.3657
283.45	589.48748
283.783	573.56701
284.116	531.0299
284.449	544.86793
284.782	605.39171
285.115	605.39171
285.448	592.66961
285.781	573.56701
286.114	564.00676
286.446	559.75581
286.779	565.06931
287.111	588.42663
287.444	562.94414
287.776	542.73986
288.109	569.31875
288.441	588.42663
288.773	575.69069
289.106	591.60898
289.438	621.28009
289.77	596.91145
290.102	572.50506
290.434	576.75242
290.766	576.75242
291.098	565.06931
291.43	602.21215
291.762	599.03194
292.094	561.88144
292.425	553.37712
292.757	548.05945
293.089	551.25029
293.42	535.28916
293.752	546.99569
294.083	569.31875
294.414	570.38093
294.746	551.25029
295.077	566.13178
295.408	597.97173
295.74	584.18248
296.071	576.75242
296.402	573.56701
296.733	561.88144
297.064	545.93185
297.395	544.86793
297.726	566.13178
298.056	604.33193
298.387	589.48748
298.718	567.19418
299.049	602.21215
299.379	584.18248
299.71	583.12126
300.04	599.03194
300.371	575.69069
300.701	569.31875
301.031	587.3657
301.362	574.62889
301.692	570.38093
302.022	575.69069
302.352	586.3047
302.682	597.97173
303.012	549.12314
303.342	537.41832
303.672	584.18248
304.002	590.54827
304.332	576.75242
304.662	589.48748
304.992	584.18248
305.321	576.75242
305.651	585.24363
305.98	567.19418
306.31	561.88144
306.639	557.62989
306.969	546.99569
307.298	565.06931
307.628	603.27207
307.957	607.51107
308.286	587.3657
308.615	577.81408
308.944	585.24363
309.273	585.24363
309.602	570.38093
309.931	570.38093
310.26	549.12314
310.589	545.93185
310.918	566.13178
311.247	574.62889
311.575	576.75242
311.904	567.19418
312.233	554.44043
312.561	549.12314
312.89	549.12314
313.218	584.18248
313.546	593.73018
313.875	569.31875
314.203	560.81866
314.531	556.56681
314.859	565.06931
315.188	587.3657
315.516	590.54827
315.844	583.12126
316.172	602.21215
316.5	588.42663
316.827	580.99861
317.155	597.97173
317.483	588.42663
317.811	577.81408
318.138	584.18248
318.466	560.81866
318.794	548.05945
319.121	565.06931
319.449	576.75242
319.776	582.05997
320.103	584.18248
320.431	585.24363
320.758	572.50506
321.085	577.81408
321.412	601.15215
321.739	607.51107
322.066	613.86746
322.393	615.9857
322.72	588.42663
323.047	571.44303
323.374	584.18248
323.701	571.44303
324.028	553.37712
324.354	567.19418
324.681	586.3047
325.008	596.91145
325.334	580.99861
325.661	564.00676
325.987	585.24363
326.314	582.05997
326.64	568.25651
326.966	599.03194
327.293	585.24363
327.619	560.81866
327.945	571.44303
328.271	585.24363
328.597	600.09208
328.923	586.3047
329.249	601.15215
329.575	600.09208
329.901	559.75581
330.227	548.05945
330.552	572.50506
330.878	589.48748
331.204	584.18248
331.529	568.25651
331.855	580.99861
332.18	604.33193
332.506	582.05997
332.831	562.94414
333.156	588.42663
333.482	624.4559
333.807	591.60898
334.132	559.75581
334.457	560.81866
334.782	587.3657
335.107	586.3047
335.432	573.56701
335.757	575.69069
336.082	561.88144
336.407	570.38093
336.732	580.99861
337.057	564.00676
337.381	540.61148
337.706	543.80393
338.031	560.81866
338.355	583.12126
338.68	588.42663
339.004	561.88144
339.329	555.50366
339.653	566.13178
339.977	552.31374
340.301	567.19418
340.626	574.62889
340.95	557.62989
341.274	570.38093
341.598	554.44043
341.922	557.62989
342.246	566.13178
342.57	566.13178
342.894	587.3657
343.218	580.99861
343.541	580.99861
343.865	566.13178
344.189	580.99861
344.512	608.57064
344.836	587.3657
345.159	585.24363
345.483	610.68958
345.806	597.97173
346.13	596.91145
346.453	607.51107
346.776	587.3657
347.099	596.91145
347.423	591.60898
347.746	574.62889
348.069	561.88144
348.392	583.12126
348.715	595.8511
349.038	568.25651
349.361	582.05997
349.683	589.48748
350.006	595.8511
350.329	572.50506
350.652	576.75242
350.974	586.3047
351.297	575.69069
351.619	589.48748
351.942	580.99861
352.264	578.87566
352.587	576.75242
352.909	566.13178
353.231	569.31875
353.554	568.25651
353.876	561.88144
354.198	578.87566
354.52	577.81408
354.842	564.00676
355.164	601.15215
355.486	613.86746
355.808	586.3047
356.13	584.18248
356.452	595.8511
356.773	596.91145
357.095	579.93717
357.417	549.12314
357.738	531.0299
358.06	552.31374
358.381	560.81866
358.703	576.75242
359.024	589.48748
359.346	568.25651
359.667	539.54717
359.988	566.13178
360.309	577.81408
360.631	574.62889
360.952	584.18248
361.273	585.24363
361.594	594.79068
361.915	621.28009
362.236	609.63015
362.557	572.50506
362.878	562.94414
363.198	568.25651
363.519	577.81408
363.84	565.06931
364.16	579.93717
364.481	582.05997
364.802	577.81408
365.122	590.54827
365.443	573.56701
365.763	588.42663
366.083	593.73018
366.404	583.12126
366.724	584.18248
367.044	595.8511
367.364	589.48748
367.685	555.50366
368.005	544.86793
368.325	556.56681
368.645	574.62889
368.965	585.24363
369.284	589.48748
369.604	587.3657
369.924	572.50506
370.244	585.24363
370.564	570.38093
370.883	537.41832
371.203	575.69069
371.522	607.51107
371.842	628.68935
372.161	613.86746
372.481	584.18248
372.8	574.62889
373.119	559.75581
373.439	564.00676
373.758	590.54827
374.077	586.3047
374.396	593.73018
374.715	606.45143
375.034	589.48748
375.353	582.05997
375.672	567.19418
375.991	564.00676
376.31	583.12126
376.629	577.81408
376.948	560.81866
377.266	575.69069
377.585	611.74894
377.904	590.54827
378.222	549.12314
378.541	556.56681
378.859	551.25029
379.178	559.75581
379.496	556.56681
379.814	556.56681
380.133	570.38093
380.451	568.25651
380.769	569.31875
381.087	554.44043
381.405	552.31374
381.723	541.6757
382.041	558.69289
382.359	587.3657
382.677	566.13178
382.995	556.56681
383.313	559.75581
383.631	568.25651
383.949	580.99861
384.266	571.44303
384.584	579.93717
384.901	590.54827
385.219	576.75242
385.537	595.8511
385.854	601.15215
386.171	556.56681
386.489	559.75581
386.806	599.03194
387.123	614.92662
387.441	601.15215
387.758	613.86746
388.075	605.39171
388.392	579.93717
388.709	585.24363
389.026	569.31875
389.343	569.31875
389.66	585.24363
389.977	586.3047
390.294	568.25651
390.61	556.56681
390.927	580.99861
391.244	580.99861
391.56	549.12314
391.877	554.44043
392.193	577.81408
392.51	587.3657
392.826	594.79068
393.143	605.39171
393.459	574.62889
393.775	555.50366
394.092	572.50506
394.408	588.42663
394.724	589.48748
395.04	582.05997
395.356	575.69069
395.672	578.87566
395.988	612.80824
396.304	584.18248
396.62	569.31875
396.936	590.54827
397.252	583.12126
397.567	586.3047
397.883	557.62989
398.199	540.61148
398.514	554.44043
398.83	555.50366
399.146	565.06931
399.461	589.48748
399.777	591.60898
400.092	573.56701
400.407	569.31875
400.723	562.94414
401.038	561.88144
401.353	568.25651
401.668	568.25651
401.983	591.60898
402.298	585.24363
402.613	569.31875
402.928	557.62989
403.243	541.6757
403.558	559.75581
403.873	570.38093
404.188	587.3657
404.503	585.24363
404.817	566.13178
405.132	569.31875
405.447	574.62889
405.761	583.12126
406.076	583.12126
406.39	586.3047
406.705	579.93717
407.019	554.44043
407.334	543.80393
407.648	556.56681
407.962	569.31875
408.276	579.93717
408.591	568.25651
408.905	556.56681
409.219	590.54827
409.533	601.15215
409.847	577.81408
410.161	568.25651
410.475	595.8511
410.789	610.68958
411.102	599.03194
411.416	604.33193
411.73	579.93717
412.044	562.94414
412.357	586.3047
412.671	593.73018
412.984	568.25651
413.298	571.44303
413.611	595.8511
413.925	621.28009
414.238	595.8511
414.552	561.88144
414.865	585.24363
415.178	567.19418
415.491	542.73986
415.804	582.05997
416.118	604.33193
416.431	595.8511
416.744	589.48748
417.057	539.54717
417.37	526.76937
417.683	559.75581
417.995	556.56681
418.308	568.25651
418.621	565.06931
418.934	548.05945
419.246	553.37712
419.559	579.93717
419.872	595.8511
420.184	565.06931
420.497	571.44303
420.809	587.3657
421.121	574.62889
421.434	586.3047
421.746	601.15215
422.058	589.48748
422.371	582.05997
422.683	571.44303
422.995	568.25651
423.307	550.18675
423.619	535.28916
423.931	532.09483
424.243	557.62989
424.555	579.93717
424.867	573.56701
425.179	606.45143
425.491	602.21215
425.802	586.3047
426.114	601.15215
426.426	577.81408
426.737	557.62989
427.049	577.81408
427.361	582.05997
427.672	560.81866
427.984	559.75581
428.295	576.75242
428.606	553.37712
428.918	567.19418
429.229	651.95411
429.54	649.84046
429.851	576.75242
430.163	556.56681
430.474	560.81866
430.785	561.88144
431.096	559.75581
431.407	559.75581
431.718	554.44043
432.029	565.06931
432.339	582.05997
432.65	589.48748
432.961	594.79068
433.272	576.75242
433.582	587.3657
433.893	592.66961
434.204	569.31875
434.514	578.87566
434.825	588.42663
435.135	580.99861
435.446	584.18248
435.756	592.66961
436.066	585.24363
436.377	585.24363
436.687	587.3657
436.997	582.05997
437.307	597.97173
437.617	577.81408
437.927	538.48278
438.237	560.81866
438.547	571.44303
438.857	558.69289
439.167	557.62989
439.477	553.37712
439.787	579.93717
440.097	585.24363
440.407	568.25651
440.716	589.48748
441.026	586.3047
441.336	574.62889
441.645	565.06931
441.955	556.56681
442.264	567.19418
442.574	589.48748
442.883	610.68958
443.192	591.60898
443.502	590.54827
443.811	614.92662
444.12	610.68958
444.429	585.24363
444.739	561.88144
445.048	594.79068
445.357	617.04472
445.666	590.54827
445.975	578.87566
446.284	562.94414
446.593	570.38093
446.901	591.60898
447.21	572.50506
447.519	534.22446
447.828	562.94414
448.136	579.93717
448.445	556.56681
448.754	574.62889
449.062	583.12126
449.371	579.93717
449.679	565.06931
449.988	549.12314
450.296	569.31875
450.605	576.75242
450.913	587.3657
451.221	619.16254
451.529	607.51107
451.838	578.87566
452.146	564.00676
452.454	577.81408
452.762	633.97964
453.07	627.63109
453.378	587.3657
453.686	589.48748
453.994	613.86746
454.302	599.03194
454.609	553.37712
454.917	541.6757
455.225	541.6757
455.533	544.86793
455.84	572.50506
456.148	587.3657
456.455	570.38093
456.763	564.00676
457.07	576.75242
457.378	588.42663
457.685	574.62889
457.993	554.44043
458.3	551.25029
458.607	567.19418
458.915	592.66961
459.222	603.27207
459.529	570.38093
459.836	567.19418
460.143	591.60898
460.45	568.25651
460.757	549.12314
461.064	545.93185
461.371	576.75242
461.678	591.60898
461.985	566.13178
462.292	566.13178
462.598	573.56701
462.905	562.94414
463.212	568.25651
463.518	578.87566
463.825	537.41832
464.131	582.05997
464.438	601.15215
464.744	569.31875
465.051	558.69289
465.357	558.69289
465.664	595.8511
465.97	609.63015
466.276	587.3657
466.582	558.69289
466.889	549.12314
467.195	562.94414
467.501	564.00676
467.807	560.81866
468.113	590.54827
468.419	559.75581
468.725	526.76937
469.031	546.99569
469.337	595.8511
469.642	603.27207
469.948	575.69069
470.254	585.24363
470.56	576.75242
470.865	566.13178
471.171	567.19418
471.477	565.06931
471.782	549.12314
472.088	580.99861
472.393	630.80567
472.698	584.18248
473.004	551.25029
473.309	570.38093
473.614	580.99861
473.92	560.81866
474.225	538.48278
474.53	556.56681
474.835	569.31875
475.14	572.50506
475.445	599.03194
475.75	596.91145
476.055	591.60898
476.36	599.03194
476.665	579.93717
476.97	574.62889
477.275	589.48748
477.58	585.24363
477.885	578.87566
478.189	582.05997
478.494	597.97173
478.799	610.68958
479.103	590.54827
479.408	582.05997
479.712	577.81408
480.017	580.99861
480.321	569.31875
480.625	562.94414
480.93	607.51107
481.234	586.3047
481.538	555.50366
481.843	579.93717
482.147	601.15215
482.451	591.60898
482.755	539.54717
483.059	537.41832
483.363	545.93185
483.667	536.35378
483.971	559.75581
484.275	590.54827
484.579	584.18248
484.883	569.31875
485.187	587.3657
485.49	580.99861
485.794	568.25651
486.098	562.94414
486.401	569.31875
486.705	554.44043
487.009	546.99569
487.312	577.81408
487.616	596.91145
487.919	579.93717
488.222	582.05997
488.526	595.8511
488.829	586.3047
489.132	595.8511
489.436	604.33193
489.739	570.38093
490.042	535.28916
490.345	532.09483
490.648	555.50366
490.951	573.56701
491.254	566.13178
491.557	569.31875
491.86	586.3047
492.163	596.91145
492.466	591.60898
492.769	592.66961
493.072	584.18248
493.375	556.56681
493.677	566.13178
493.98	577.81408
494.283	579.93717
494.585	611.74894
494.888	622.33876
495.19	595.8511
495.493	576.75242
495.795	589.48748
496.098	584.18248
496.4	599.03194
496.702	623.39736
497.005	583.12126
497.307	599.03194
497.609	589.48748
497.911	544.86793
498.213	571.44303
498.515	609.63015
498.818	605.39171
499.12	570.38093
499.422	606.45143
499.723	586.3047
500.025	560.81866
500.327	574.62889
500.629	569.31875
500.931	582.05997
501.233	577.81408
501.534	586.3047
501.836	590.54827
502.138	593.73018
502.439	586.3047
502.741	582.05997
503.042	585.24363
503.344	583.12126
503.645	603.27207
503.947	584.18248
504.248	564.00676
504.55	588.42663
504.851	573.56701
505.152	558.69289
505.453	576.75242
505.755	620.22135
506.056	585.24363
506.357	552.31374
506.658	584.18248
506.959	570.38093
507.26	576.75242
507.561	573.56701
507.862	543.80393
508.163	546.99569
508.464	564.00676
508.764	577.81408
509.065	573.56701
509.366	594.79068
509.667	593.73018
509.967	557.62989
510.268	561.88144
510.569	586.3047
510.869	608.57064
511.17	590.54827
511.47	586.3047
511.771	587.3657
512.071	567.19418
512.371	553.37712
512.672	542.73986
512.972	548.05945
513.272	564.00676
513.573	566.13178
513.873	582.05997
514.173	555.50366
514.473	532.09483
514.773	584.18248
515.073	592.66961
515.373	553.37712
515.673	559.75581
515.973	575.69069
516.273	569.31875
516.573	573.56701
516.873	562.94414
517.172	571.44303
517.472	588.42663
517.772	593.73018
518.072	592.66961
518.371	601.15215
518.671	588.42663
518.97	556.56681
519.27	564.00676
519.569	580.99861
519.869	580.99861
520.168	587.3657
520.468	605.39171
520.767	577.81408
521.066	558.69289
521.366	572.50506
521.665	570.38093
521.964	569.31875
522.263	583.12126
522.562	584.18248
522.861	541.6757
523.161	540.61148
523.46	557.62989
523.759	587.3657
524.057	617.04472
524.356	580.99861
524.655	566.13178
524.954	576.75242
525.253	589.48748
525.552	586.3047
525.85	584.18248
526.149	589.48748
526.448	567.19418
526.746	543.80393
527.045	552.31374
527.344	594.79068
527.642	604.33193
527.941	605.39171
528.239	577.81408
528.537	545.93185
528.836	584.18248
529.134	596.91145
529.432	590.54827
529.731	603.27207
530.029	600.09208
530.327	570.38093
530.625	550.18675
530.923	551.25029
531.221	566.13178
531.52	611.74894
531.818	601.15215
532.116	582.05997
532.413	580.99861
532.711	561.88144
533.009	569.31875
533.307	558.69289
533.605	565.06931
533.903	570.38093
534.2	532.09483
534.498	559.75581
534.796	596.91145
535.093	590.54827
535.391	588.42663
535.689	582.05997
535.986	594.79068
536.284	606.45143
536.581	590.54827
536.878	597.97173
537.176	584.18248
537.473	556.56681
537.77	562.94414
538.068	584.18248
538.365	610.68958
538.662	597.97173
538.959	585.24363
539.256	551.25029
539.554	539.54717
539.851	572.50506
540.148	582.05997
540.445	591.60898
540.742	577.81408
541.039	550.18675
541.335	590.54827
541.632	619.16254
541.929	592.66961
542.226	578.87566
542.523	586.3047
542.819	576.75242
543.116	577.81408
543.413	596.91145
543.709	582.05997
544.006	570.38093
544.302	577.81408
544.599	605.39171
544.895	580.99861
545.192	532.09483
545.488	579.93717
545.785	576.75242
546.081	544.86793
546.377	579.93717
546.673	575.69069
546.97	564.00676
547.266	600.09208
547.562	610.68958
547.858	588.42663
548.154	560.81866
548.45	559.75581
548.746	607.51107
549.042	610.68958
549.338	579.93717
549.634	552.31374
549.93	523.57314
550.226	537.41832
550.522	565.06931
550.818	572.50506
551.113	560.81866
551.409	558.69289
551.705	557.62989
552	566.13178
552.296	601.15215
552.592	628.68935
552.887	590.54827
553.183	545.93185
553.478	551.25029
553.774	539.54717
554.069	568.25651
554.364	603.27207
554.66	577.81408
554.955	560.81866
555.25	587.3657
555.546	587.3657
555.841	584.18248
556.136	585.24363
556.431	551.25029
556.726	594.79068
557.021	596.91145
557.316	554.44043
557.611	576.75242
557.906	572.50506
558.201	577.81408
558.496	597.97173
558.791	587.3657
559.086	550.18675
559.381	551.25029
559.675	587.3657
559.97	619.16254
560.265	622.33876
560.56	577.81408
560.854	560.81866
561.149	571.44303
561.443	539.54717
561.738	556.56681
562.032	605.39171
562.327	594.79068
562.621	582.05997
562.916	570.38093
563.21	588.42663
563.504	573.56701
563.799	568.25651
564.093	587.3657
564.387	551.25029
564.681	566.13178
564.976	582.05997
565.27	562.94414
565.564	593.73018
565.858	590.54827
566.152	545.93185
566.446	559.75581
566.74	576.75242
567.034	564.00676
567.328	542.73986
567.622	575.69069
567.916	597.97173
568.209	594.79068
568.503	573.56701
568.797	550.18675
569.091	580.99861
569.384	593.73018
569.678	557.62989
569.972	542.73986
570.265	585.24363
570.559	585.24363
570.852	582.05997
571.146	569.31875
571.439	573.56701
571.733	605.39171
572.026	602.21215
572.319	606.45143
572.613	601.15215
572.906	586.3047
573.199	583.12126
573.492	580.99861
573.786	564.00676
574.079	607.51107
574.372	612.80824
574.665	557.62989
574.958	558.69289
575.251	548.05945
575.544	566.13178
575.837	590.54827
576.13	578.87566
576.423	556.56681
576.716	532.09483
577.009	569.31875
577.301	605.39171
577.594	586.3047
577.887	580.99861
578.18	595.8511
578.472	584.18248
578.765	576.75242
579.057	573.56701
579.35	555.50366
579.643	576.75242
579.935	602.21215
580.228	590.54827
580.52	554.44043
580.813	552.31374
581.105	566.13178
581.397	583.12126
581.69	609.63015
581.982	592.66961
582.274	575.69069
582.566	582.05997
582.859	591.60898
583.151	595.8511
583.443	588.42663
583.735	607.51107
584.027	605.39171
584.319	571.44303
584.611	591.60898
584.903	582.05997
585.195	567.19418
585.487	590.54827
585.779	549.12314
586.071	544.86793
586.363	591.60898
586.654	590.54827
586.946	577.81408
587.238	574.62889
587.529	584.18248
587.821	617.04472
588.113	636.09528
588.404	607.51107
588.696	553.37712
588.987	548.05945
589.279	576.75242
589.57	583.12126
589.862	565.06931
590.153	560.81866
590.445	576.75242
590.736	562.94414
591.027	590.54827
591.319	607.51107
591.61	568.25651
591.901	551.25029
592.192	564.00676
592.484	555.50366
592.775	543.80393
593.066	579.93717
593.357	619.16254
593.648	601.15215
593.939	586.3047
594.23	561.88144
594.521	553.37712
594.812	566.13178
595.103	587.3657
595.393	600.09208
595.684	570.38093
595.975	576.75242
596.266	597.97173
596.557	617.04472
596.847	580.99861
597.138	560.81866
597.429	572.50506
597.719	574.62889
598.01	573.56701
598.3	554.44043
598.591	565.06931
598.881	595.8511
599.172	585.24363
599.462	603.27207
599.753	617.04472
600.043	580.99861
600.333	569.31875
600.624	590.54827
600.914	599.03194
601.204	578.87566
601.494	586.3047
601.785	585.24363
602.075	590.54827
602.365	593.73018
602.655	561.88144
602.945	552.31374
603.235	566.13178
603.525	561.88144
603.815	544.86793
604.105	557.62989
604.395	583.12126
604.685	579.93717
604.975	595.8511
605.265	632.92172
605.554	600.09208
605.844	592.66961
606.134	599.03194
606.424	571.44303
606.713	559.75581
607.003	542.73986
607.293	580.99861
607.582	618.10366
607.872	597.97173
608.161	593.73018
608.451	596.91145
608.74	578.87566
609.03	589.48748
609.319	595.8511
609.608	554.44043
609.898	549.12314
610.187	565.06931
610.476	570.38093
610.766	585.24363
611.055	586.3047
611.344	569.31875
611.633	580.99861
611.922	585.24363
612.211	552.31374
612.501	554.44043
612.79	562.94414
613.079	557.62989
613.368	572.50506
613.657	590.54827
613.946	588.42663
614.234	567.19418
614.523	564.00676
614.812	572.50506
615.101	558.69289
615.39	582.05997
615.679	596.91145
615.967	577.81408
616.256	571.44303
616.545	562.94414
616.833	587.3657
617.122	592.66961
617.411	566.13178
617.699	557.62989
617.988	552.31374
618.276	548.05945
618.565	578.87566
618.853	588.42663
619.141	560.81866
619.43	567.19418
619.718	586.3047
620.007	587.3657
620.295	569.31875
620.583	550.18675
620.871	548.05945
621.16	548.05945
621.448	540.61148
621.736	556.56681
622.024	577.81408
622.312	579.93717
622.6	574.62889
622.888	590.54827
623.176	593.73018
623.464	555.50366
623.752	618.10366
624.04	639.26825
624.328	580.99861
624.616	567.19418
624.904	559.75581
625.192	571.44303
625.479	568.25651
625.767	583.12126
626.055	587.3657
626.343	584.18248
626.63	573.56701
626.918	549.12314
627.206	553.37712
627.493	558.69289
627.781	553.37712
628.068	557.62989
628.356	591.60898
628.643	602.21215
628.931	575.69069
629.218	572.50506
629.505	573.56701
629.793	557.62989
630.08	575.69069
630.367	591.60898
630.655	588.42663
630.942	605.39171
631.229	627.63109
631.516	591.60898
631.804	555.50366
632.091	564.00676
632.378	553.37712
632.665	569.31875
632.952	592.66961
633.239	580.99861
633.526	565.06931
633.813	575.69069
634.1	594.79068
634.387	570.38093
634.674	578.87566
634.961	591.60898
635.247	556.56681
635.534	561.88144
635.821	567.19418
636.108	550.18675
636.394	603.27207
636.681	620.22135
636.968	601.15215
637.255	614.92662
637.541	605.39171
637.828	594.79068
638.114	590.54827
638.401	601.15215
638.687	582.05997
638.974	568.25651
639.26	597.97173
639.547	626.57276
639.833	623.39736
640.119	583.12126
640.406	550.18675
640.692	562.94414
640.978	592.66961
641.265	621.28009
641.551	611.74894
641.837	545.93185
642.123	542.73986
642.409	600.09208
642.696	610.68958
642.982	580.99861
643.268	579.93717
643.554	574.62889
643.84	593.73018
644.126	593.73018
644.412	621.28009
644.698	633.97964
644.984	618.10366
645.269	622.33876
645.555	560.81866
645.841	555.50366
646.127	579.93717
646.413	589.48748
646.698	596.91145
646.984	599.03194
647.27	575.69069
647.556	541.6757
647.841	567.19418
648.127	592.66961
648.412	593.73018
648.698	570.38093
648.984	564.00676
649.269	576.75242
649.554	580.99861
649.84	580.99861
650.125	568.25651
650.411	578.87566
650.696	595.8511
650.982	582.05997
651.267	574.62889
651.552	583.12126
651.837	535.28916
652.123	545.93185
652.408	596.91145
652.693	561.88144
652.978	557.62989
653.263	570.38093
653.549	559.75581
653.834	566.13178
654.119	561.88144
654.404	555.50366
654.689	578.87566
654.974	568.25651
655.259	567.19418
655.544	583.12126
655.828	572.50506
656.113	575.69069
656.398	570.38093
656.683	556.56681
656.968	554.44043
657.253	591.60898
657.537	583.12126
657.822	580.99861
658.107	573.56701
658.391	561.88144
658.676	603.27207
658.961	580.99861
659.245	578.87566
659.53	588.42663
659.814	584.18248
660.099	607.51107
660.383	554.44043
660.668	543.80393
