Data from sample_5_A_6Oclock_ST026791__144__23253.txt Node

Date: Tue Aug 19 16:42:35 AEST 2025
User: mathewyoussef
Spectrometer: ST02679
Trigger mode: 0
Integration Time (sec): 6.653700E-1
Scans to average: 1
Nonlinearity correction enabled: true
Boxcar width: 0
Storing dark spectrum: false
XAxis mode: Wavelengths
Number of Pixels in Spectrum: 1516
>>>>>Begin Spectral Data<<<<<
187.304	639.26825
187.653	662.51844
188.002	627.63109
188.351	576.75242
188.7	564.00676
189.048	570.38093
189.397	631.86373
189.746	647.72654
190.094	660.40609
190.443	657.23708
190.791	610.68958
191.14	611.74894
191.488	601.15215
191.837	577.81408
192.185	580.99861
192.533	597.97173
192.881	614.92662
193.229	591.60898
193.577	597.97173
193.925	622.33876
194.273	625.51436
194.621	637.15301
194.969	615.9857
195.317	593.73018
195.664	617.04472
196.012	607.51107
196.359	567.19418
196.707	587.3657
197.054	593.73018
197.402	593.73018
197.749	614.92662
198.096	624.4559
198.443	612.80824
198.791	589.48748
199.138	609.63015
199.485	619.16254
199.832	617.04472
200.179	611.74894
200.525	593.73018
200.872	601.15215
201.219	588.42663
201.566	611.74894
201.912	630.80567
202.259	606.45143
202.605	586.3047
202.952	595.8511
203.298	606.45143
203.644	595.8511
203.991	600.09208
204.337	587.3657
204.683	572.50506
205.029	580.99861
205.375	585.24363
205.721	594.79068
206.067	615.9857
206.413	609.63015
206.759	579.93717
207.104	567.19418
207.45	577.81408
207.796	604.33193
208.141	611.74894
208.487	625.51436
208.832	627.63109
209.177	609.63015
209.523	605.39171
209.868	602.21215
210.213	600.09208
210.558	593.73018
210.903	601.15215
211.248	615.9857
211.593	620.22135
211.938	612.80824
212.283	624.4559
212.628	607.51107
212.973	570.38093
213.317	561.88144
213.662	597.97173
214.007	601.15215
214.351	575.69069
214.696	605.39171
215.04	636.09528
215.384	627.63109
215.729	621.28009
216.073	621.28009
216.417	619.16254
216.761	608.57064
217.105	610.68958
217.449	621.28009
217.793	629.74755
218.137	617.04472
218.481	611.74894
218.824	649.84046
219.168	615.9857
219.512	608.57064
219.855	629.74755
220.199	592.66961
220.542	583.12126
220.886	647.72654
221.229	624.4559
221.572	569.31875
221.916	585.24363
222.259	608.57064
222.602	603.27207
222.945	589.48748
223.288	595.8511
223.631	578.87566
223.974	589.48748
224.317	601.15215
224.659	608.57064
225.002	635.0375
225.345	611.74894
225.687	603.27207
226.03	637.15301
226.372	621.28009
226.715	599.03194
227.057	588.42663
227.4	579.93717
227.742	587.3657
228.084	584.18248
228.426	584.18248
228.768	593.73018
229.11	583.12126
229.452	584.18248
229.794	600.09208
230.136	583.12126
230.478	576.75242
230.82	574.62889
231.161	574.62889
231.503	664.63053
231.845	679.40801
232.186	676.24245
232.528	662.51844
232.869	584.18248
233.21	591.60898
233.552	602.21215
233.893	604.33193
234.234	591.60898
234.575	586.3047
234.916	612.80824
235.257	600.09208
235.598	595.8511
235.939	620.22135
236.28	621.28009
236.621	587.3657
236.961	609.63015
237.302	648.78353
237.643	629.74755
237.983	631.86373
238.324	629.74755
238.664	635.0375
239.005	605.39171
239.345	582.05997
239.685	620.22135
240.025	620.22135
240.366	590.54827
240.706	599.03194
241.046	613.86746
241.386	596.91145
241.726	579.93717
242.066	602.21215
242.405	621.28009
242.745	617.04472
243.085	629.74755
243.425	617.04472
243.764	632.92172
244.104	678.35288
244.443	670.96526
244.783	632.92172
245.122	573.56701
245.461	568.25651
245.801	597.97173
246.14	594.79068
246.479	586.3047
246.818	585.24363
247.157	622.33876
247.496	632.92172
247.835	594.79068
248.174	589.48748
248.513	584.18248
248.852	623.39736
249.19	642.44061
249.529	589.48748
249.868	599.03194
250.206	597.97173
250.545	587.3657
250.883	570.38093
251.221	558.69289
251.56	582.05997
251.898	582.05997
252.236	587.3657
252.574	599.03194
252.912	603.27207
253.25	601.15215
253.588	592.66961
253.926	604.33193
254.264	608.57064
254.602	633.97964
254.94	626.57276
255.278	557.62989
255.615	560.81866
255.953	601.15215
256.29	623.39736
256.628	622.33876
256.965	592.66961
257.303	591.60898
257.64	664.63053
257.977	668.85394
258.314	608.57064
258.652	587.3657
258.989	620.22135
259.326	594.79068
259.663	557.62989
260	584.18248
260.337	579.93717
260.673	584.18248
261.01	609.63015
261.347	602.21215
261.684	577.81408
262.02	593.73018
262.357	606.45143
262.693	599.03194
263.03	602.21215
263.366	603.27207
263.702	591.60898
264.039	596.91145
264.375	605.39171
264.711	619.16254
265.047	602.21215
265.383	591.60898
265.719	607.51107
266.055	627.63109
266.391	678.35288
266.727	655.12409
267.063	619.16254
267.399	636.09528
267.734	640.32577
268.07	648.78353
268.405	628.68935
268.741	619.16254
269.076	609.63015
269.412	597.97173
269.747	604.33193
270.082	607.51107
270.418	606.45143
270.753	614.92662
271.088	635.0375
271.423	655.12409
271.758	614.92662
272.093	589.48748
272.428	608.57064
272.763	613.86746
273.098	624.4559
273.433	602.21215
273.767	582.05997
274.102	585.24363
274.436	593.73018
274.771	614.92662
275.106	639.26825
275.44	665.68648
275.774	647.72654
276.109	601.15215
276.443	575.69069
276.777	565.06931
277.111	600.09208
277.445	610.68958
277.78	625.51436
278.114	651.95411
278.447	621.28009
278.781	588.42663
279.115	586.3047
279.449	587.3657
279.783	624.4559
280.116	622.33876
280.45	582.05997
280.784	610.68958
281.117	647.72654
281.451	621.28009
281.784	667.79818
282.117	669.90963
282.451	618.10366
282.784	597.97173
283.117	583.12126
283.45	625.51436
283.783	596.91145
284.116	579.93717
284.449	597.97173
284.782	591.60898
285.115	635.0375
285.448	612.80824
285.781	568.25651
286.114	571.44303
286.446	585.24363
286.779	655.12409
287.111	644.55518
287.444	590.54827
287.776	572.50506
288.109	612.80824
288.441	631.86373
288.773	592.66961
289.106	639.26825
289.438	641.38322
289.77	613.86746
290.102	632.92172
290.434	610.68958
290.766	673.07633
291.098	686.79211
291.43	662.51844
291.762	685.73743
292.094	629.74755
292.425	593.73018
292.757	613.86746
293.089	653.01083
293.42	663.57452
293.752	644.55518
294.083	665.68648
294.414	687.84674
294.746	656.18062
295.077	664.63053
295.408	707.87292
295.74	743.65557
296.071	713.13934
296.402	647.72654
296.733	664.63053
297.064	681.51806
297.395	644.55518
297.726	667.79818
298.056	769.92426
298.387	787.76742
298.718	773.07418
299.049	812.9318
299.379	739.44933
299.71	695.22737
300.04	757.31963
300.371	764.67329
300.701	757.31963
301.031	801.40184
301.362	820.26583
301.692	796.15888
302.022	789.8656
302.352	775.17386
302.682	822.36082
303.012	822.36082
303.342	830.73875
303.672	829.69168
304.002	846.43887
304.332	907.04608
304.662	873.62681
304.992	845.39253
305.321	856.89956
305.651	906.00242
305.98	926.86735
306.31	932.0809
306.639	927.91014
306.969	915.39378
307.298	897.65156
307.628	928.95289
307.957	970.62893
308.286	986.24083
308.615	974.79297
308.944	1021.59583
309.273	1019.51732
309.602	934.16602
309.931	996.6439
310.26	1028.86946
310.589	1043.41141
310.918	1046.52664
311.247	1148.12453
311.575	1147.08936
311.904	1069.362
312.233	1169.85621
312.561	1137.77146
312.89	1123.272
313.218	1284.51929
313.546	1307.20757
313.875	1192.60893
314.203	1097.36475
314.531	1101.51126
314.859	1220.51411
315.188	1225.67954
315.516	1230.84431
315.844	1269.04319
316.172	1326.79268
316.5	1326.79268
316.827	1252.5291
317.155	1299.98984
317.483	1323.70086
317.811	1307.20757
318.138	1315.45497
318.466	1342.24869
318.794	1353.57983
319.121	1331.94526
319.449	1401.96477
319.776	1453.38736
320.103	1423.56844
320.431	1436.93762
320.758	1436.93762
321.085	1420.48276
321.412	1401.96477
321.739	1412.25337
322.066	1464.69365
322.393	1455.44323
322.72	1421.51134
323.047	1519.13719
323.374	1613.52407
323.701	1486.27191
324.028	1456.47113
324.354	1572.50408
324.681	1561.21886
325.008	1660.66489
325.334	1635.04906
325.661	1536.58929
325.987	1635.04906
326.314	1687.29505
326.64	1687.29505
326.966	1692.41505
327.293	1673.98127
327.619	1666.81124
327.945	1663.73814
328.271	1640.17302
328.597	1649.39514
328.923	1665.78689
329.249	1648.37052
329.575	1612.49889
329.901	1590.96637
330.227	1675.0055
330.552	1747.68734
330.878	1665.78689
331.204	1664.76252
331.529	1683.19878
331.855	1779.39861
332.18	1850.95536
332.506	1737.45496
332.831	1665.78689
333.156	1742.57134
333.482	1776.33037
333.807	1767.1249
334.132	1816.20763
334.457	1834.60544
334.782	1865.25872
335.107	1836.64937
335.432	1797.80537
335.757	1787.57995
336.082	1778.37588
336.407	1831.53945
336.732	1845.84639
337.057	1866.28029
337.381	1873.43089
337.706	1848.91181
338.031	1889.7727
338.355	1908.1532
338.68	1926.52948
339.004	1896.92117
339.329	1954.08607
339.653	1966.33044
339.977	1888.75143
340.301	1928.57103
340.626	1953.06562
340.95	1993.8736
341.274	1999.99306
341.598	1980.61323
341.922	2042.8166
342.246	2019.36834
342.57	1976.53269
342.894	2013.25032
343.218	2023.44677
343.541	2063.20104
343.865	2015.28971
344.189	1997.95329
344.512	2084.59939
344.836	2070.33443
345.159	2038.73911
345.483	1985.71363
345.806	1997.95329
346.13	2102.9365
346.453	2085.61822
346.776	2121.26963
347.099	2171.15639
347.423	2128.39811
347.746	2122.28802
348.069	2183.36909
348.392	2235.25345
348.715	2161.99572
349.038	2120.25123
349.361	2173.19196
349.683	2185.40437
350.006	2184.38673
350.329	2189.47478
350.652	2252.54118
350.974	2271.85859
351.297	2227.11682
351.619	2212.87585
351.942	2217.96218
352.264	2267.79214
352.587	2283.04034
352.909	2250.50751
353.231	2238.30448
353.554	2243.38929
353.876	2230.16815
354.198	2348.06838
354.52	2444.50116
354.842	2418.12018
355.164	2382.59402
355.486	2397.82138
355.808	2380.5635
356.13	2276.94139
356.452	2378.53292
356.773	2449.57346
357.095	2348.06838
357.417	2318.60878
357.738	2325.72066
358.06	2395.79123
358.381	2402.89655
358.703	2351.11533
359.024	2382.59402
359.346	2371.42552
359.667	2356.19334
359.988	2332.83194
360.309	2371.42552
360.631	2421.16457
360.952	2376.5023
361.273	2374.47163
361.594	2407.9714
361.915	2466.81692
362.236	2441.45763
362.557	2432.32637
362.878	2545.8872
363.198	2572.22673
363.519	2425.22358
363.84	2414.06082
364.16	2472.90199
364.481	2486.08473
364.802	2497.23769
365.122	2546.90042
365.443	2650.18098
365.763	2562.09717
366.083	2461.74569
366.404	2452.61669
366.724	2522.57964
367.044	2613.74443
367.364	2550.95317
367.685	2468.84533
368.005	2468.84533
368.325	2474.93024
368.645	2459.71711
368.965	2514.47108
369.284	2548.92682
369.604	2539.80762
369.924	2617.79378
370.244	2723.0029
370.564	2636.01323
370.883	2553.9926
371.203	2678.50877
371.522	2703.79268
371.842	2740.1869
372.161	2731.08997
372.481	2663.33445
372.8	2687.61193
373.119	2743.21897
373.439	2777.57395
373.758	2706.8262
374.077	2679.52029
374.396	2737.15471
374.715	2721.99196
375.034	2624.87962
375.353	2575.26535
375.672	2488.11266
375.991	2407.9714
376.31	2394.77613
376.629	2264.74216
376.948	2260.67537
377.266	2361.27104
377.585	2447.54458
377.904	2593.49461
378.222	2629.94055
378.541	2640.06142
378.859	2778.58415
379.178	2842.19957
379.496	2830.08653
379.814	2791.71557
380.133	2678.50877
380.451	2677.49724
380.769	2668.39289
381.087	2636.01323
381.405	2614.75679
381.723	2603.62017
382.041	2688.62333
382.359	2743.21897
382.677	2736.14396
382.995	2787.67538
383.313	2791.71557
383.631	2707.83734
383.949	2698.73657
384.266	2700.75905
384.584	2727.04655
384.901	2781.61468
385.219	2842.19957
385.537	2808.88396
385.854	2811.91327
386.171	2821.00045
386.489	2740.1869
386.806	2796.76551
387.123	2876.50907
387.441	2891.64054
387.758	2944.07199
388.075	2894.66645
388.392	2774.54326
388.709	2756.35654
389.026	2756.35654
389.343	2766.46081
389.66	2801.8151
389.977	2880.54444
390.294	2849.26459
390.61	2838.16211
390.927	2950.11933
391.244	2906.76887
391.56	2819.99082
391.877	2771.51244
392.193	2743.21897
392.51	2831.09602
392.826	2853.30145
393.143	2819.99082
393.459	2887.60579
393.775	2857.33808
394.092	2831.09602
394.408	2915.84436
394.724	2928.95141
395.04	2881.55324
395.356	2919.87755
395.672	3069.95291
395.988	3117.22629
396.304	3090.07314
396.62	3101.1368
396.936	3200.63085
397.252	3160.44839
397.567	3046.80755
397.883	3112.19872
398.199	3051.83979
398.514	3056.87168
398.83	3160.44839
399.146	3062.90947
399.461	3093.09067
399.777	3127.28033
400.092	3055.86533
400.407	3013.58575
400.723	2952.135
401.038	2889.62319
401.353	2929.95955
401.668	2998.4798
401.983	2995.45823
402.298	2997.47262
402.613	2904.75194
402.928	2876.50907
403.243	2894.66645
403.558	2973.29612
403.873	3010.56482
404.188	2896.68366
404.503	2905.76041
404.817	2900.71791
405.132	2844.21822
405.447	2950.11933
405.761	3050.83337
406.076	3027.68175
406.39	3022.64778
406.705	3039.7618
407.019	3049.82694
407.334	3051.83979
407.648	3063.91572
407.962	3025.6682
408.276	3008.55079
408.591	3030.70195
408.905	2976.31863
409.219	3067.94057
409.533	3143.36379
409.847	3118.23176
410.161	3097.11385
410.475	3118.23176
410.789	3155.42395
411.102	3069.95291
411.416	3121.24808
411.73	3249.82248
412.044	3233.76377
412.357	3132.30681
412.671	3067.94057
412.984	3081.01975
413.298	3076.99565
413.611	3069.95291
413.925	3146.37903
414.238	3078.00169
414.552	3094.09649
414.865	3110.18759
415.178	3043.78803
415.491	2983.37066
415.804	3000.49411
416.118	3065.92818
416.431	2989.4147
416.744	2960.19711
417.057	2941.04813
417.37	2975.31114
417.683	2932.98388
417.995	2933.99196
418.308	3004.52257
418.621	2945.07991
418.934	2857.33808
419.246	2956.16617
419.559	3061.90321
419.872	3104.15386
420.184	3148.38911
420.497	3102.1425
420.809	3096.10808
421.121	3124.26427
421.434	3076.99565
421.746	3010.56482
422.058	3037.7486
422.371	3060.89693
422.683	3003.51547
422.995	2915.84436
423.307	2913.82769
423.619	2991.42926
423.931	3000.49411
424.243	2930.96767
424.555	2972.28859
424.867	3000.49411
425.179	2910.80256
425.491	2887.60579
425.802	2866.4197
426.114	2839.17149
426.426	2817.97152
426.737	2841.19022
427.049	2892.64919
427.361	2951.12717
427.672	2963.22017
427.984	2884.57958
428.295	2894.66645
428.606	2841.19022
428.918	2862.38356
429.229	3045.80105
429.54	2959.1894
429.851	2733.11161
430.163	2753.32499
430.474	2838.16211
430.785	2861.3745
431.096	2848.25535
431.407	2861.3745
431.718	2865.41069
432.029	2789.6955
432.339	2749.28275
432.65	2804.8447
432.961	2813.93274
433.272	2789.6955
433.582	2868.43769
433.893	2811.91327
434.204	2764.44006
434.514	2822.01007
434.825	2734.1224
435.135	2711.88178
435.446	2823.01968
435.756	2853.30145
436.066	2836.1433
436.377	2903.74345
436.687	2888.61449
436.997	2805.85453
437.307	2852.29226
437.617	2871.46456
437.927	2885.58833
438.237	2950.11933
438.547	2930.96767
438.857	2918.86928
439.167	2973.29612
439.477	2943.06405
439.787	2947.09572
440.097	2994.45101
440.407	2966.24311
440.716	2874.49131
441.026	2920.88582
441.336	2999.48696
441.645	2969.26591
441.955	2884.57958
442.264	2826.04841
442.574	2960.19711
442.883	3015.59964
443.192	2943.06405
443.502	2952.135
443.811	2994.45101
444.12	2958.18167
444.429	2874.49131
444.739	2799.79531
445.048	2886.59706
445.357	2922.9023
445.666	2837.15271
445.975	2839.17149
446.284	2804.8447
446.593	2787.67538
446.901	2804.8447
447.21	2816.96184
447.519	2763.42967
447.828	2802.82498
448.136	2858.34721
448.445	2913.82769
448.754	2889.62319
449.062	2839.17149
449.371	2876.50907
449.679	2902.73495
449.988	2986.39274
450.296	3056.87168
450.605	3136.32774
450.913	3322.0401
451.221	3550.22533
451.529	3558.21795
451.838	3384.16631
452.146	3231.75617
452.454	3275.90986
452.762	3384.16631
453.07	3232.75998
453.378	3066.93438
453.686	3103.14819
453.994	3243.8009
454.302	3167.48201
454.609	3011.57181
454.917	3018.62036
455.225	3071.96519
455.533	3020.6341
455.84	2901.72644
456.148	2913.82769
456.455	2971.28105
456.763	3016.60656
457.07	3111.19316
457.378	3152.4091
457.685	3003.51547
457.993	2945.07991
458.3	2990.42199
458.607	3074.98351
458.915	3117.22629
459.222	3216.69729
459.529	3211.67693
459.836	3144.36888
460.143	3185.56516
460.45	3039.7618
460.757	2966.24311
461.064	2996.46543
461.371	3079.00773
461.678	3092.08484
461.985	3123.25889
462.292	3251.82955
462.598	3297.97603
462.905	3341.0848
463.212	3402.19233
463.518	3427.22054
463.825	3505.24938
464.131	3733.82035
464.438	3731.82737
464.744	3560.21596
465.051	3586.18475
465.357	3634.10125
465.664	3631.10744
465.97	3486.25061
466.276	3454.24066
466.582	3425.21862
466.889	3287.94683
467.195	3450.23836
467.501	3592.17614
467.807	3841.35723
468.113	4134.28538
468.419	4252.13735
468.725	4399.47088
469.031	4544.60022
469.337	4686.57542
469.642	4586.02812
469.948	4376.74387
470.254	4322.37374
470.56	4205.61096
470.865	3971.57908
471.171	3852.30091
471.477	3874.18326
471.782	3736.80971
472.088	3603.15901
472.393	3742.78804
472.698	3633.10333
473.004	3389.17401
473.309	3496.25062
473.614	3676.00078
473.92	3765.70026
474.225	3769.68423
474.53	3761.71606
474.835	3807.52069
475.14	3795.57452
475.445	3683.97876
475.75	3588.18194
476.055	3434.22679
476.36	3262.86741
476.665	3179.53797
476.97	3216.69729
477.275	3274.90668
477.58	3264.8741
477.885	3287.94683
478.189	3198.62228
478.494	3075.98958
478.799	3052.8462
479.103	3086.04955
479.408	3108.17641
479.712	3128.28566
480.017	3130.29626
480.321	3194.60497
480.625	3242.79725
480.93	3331.06193
481.234	3520.24467
481.538	3614.14011
481.843	3696.94102
482.147	3891.08779
482.451	3956.67993
482.755	3946.7455
483.059	3981.51018
483.363	3962.63995
483.667	4018.2438
483.971	4055.95164
484.275	4105.53907
484.579	4163.02131
484.883	4168.96539
485.187	4091.65778
485.49	4075.79042
485.794	4045.03813
486.098	3995.4115
486.401	4043.05369
486.705	4006.33216
487.009	3938.79699
487.312	3912.95838
487.616	3912.95838
487.919	3890.09351
488.222	3938.79699
488.526	3936.80973
488.829	3932.83504
489.132	3981.51018
489.436	3895.06475
489.739	3883.13321
490.042	3985.48225
490.345	3935.81608
490.648	3891.08779
490.951	3968.59949
491.254	4080.74932
491.557	4108.51332
491.86	4120.40916
492.163	4219.4726
492.466	4259.06461
492.769	4329.2954
493.072	4510.06463
493.375	4646.16974
493.677	4672.77987
493.98	4650.11235
494.283	4547.55988
494.585	4369.82584
494.888	4373.77906
495.19	4424.16791
495.493	4279.84302
495.795	4225.41259
496.098	4265.9913
496.4	4245.20952
496.702	4119.41791
497.005	4150.14096
497.307	4266.98078
497.609	4149.15008
497.911	4090.66617
498.213	4119.41791
498.515	4075.79042
498.818	4109.50471
499.12	4201.65007
499.422	4150.14096
499.723	4057.93575
500.025	4166.98408
500.327	4212.54207
500.629	4164.01202
500.931	4184.81414
501.233	4189.76624
501.534	4147.16828
501.836	4140.23159
502.138	4211.55195
502.439	4240.26072
502.741	4165.00272
503.042	4214.52228
503.344	4342.14849
503.645	4393.54263
503.947	4309.51779
504.248	4344.12572
504.55	4370.81416
504.851	4320.39602
505.152	4389.59025
505.453	4352.03423
505.755	4387.614
506.056	4411.32626
506.357	4363.89569
506.658	4379.70858
506.959	4396.5068
507.26	4450.83353
507.561	4340.17121
507.862	4266.98078
508.163	4321.38489
508.464	4354.99974
508.764	4400.45889
509.065	4349.06862
509.366	4406.3867
509.667	4486.37639
509.967	4327.31784
510.268	4260.05417
510.569	4442.93337
510.869	4376.74387
511.17	4186.79502
511.47	4295.67082
511.771	4355.98822
512.071	4336.21652
512.371	4363.89569
512.672	4322.37374
512.972	4356.97669
513.272	4366.86081
513.573	4310.50678
513.873	4360.93047
514.173	4329.2954
514.473	4294.68167
514.773	4367.84917
515.073	4400.45889
515.373	4390.57836
515.673	4366.86081
515.973	4360.93047
516.273	4328.30663
516.573	4324.35141
516.873	4323.36258
517.172	4313.47367
517.472	4253.12699
517.772	4292.70333
518.072	4381.685
518.371	4439.97065
518.671	4404.4108
518.97	4271.92802
519.27	4315.45154
519.569	4338.19389
519.869	4265.00181
520.168	4309.51779
520.468	4313.47367
520.767	4281.82165
521.066	4287.75728
521.366	4268.95971
521.665	4252.13735
521.964	4253.12699
522.263	4301.60551
522.562	4354.01125
522.861	4258.07503
523.161	4264.0123
523.46	4368.83751
523.759	4336.21652
524.057	4311.49575
524.356	4295.67082
524.655	4289.73573
524.954	4289.73573
525.253	4333.25039
525.552	4381.685
525.85	4386.62586
526.149	4420.21682
526.448	4370.81416
526.746	4292.70333
527.045	4304.5727
527.344	4414.28987
527.642	4433.05727
527.941	4421.2046
528.239	4447.87105
528.537	4354.99974
528.836	4261.04372
529.134	4225.41259
529.432	4321.38489
529.731	4343.13711
530.029	4279.84302
530.327	4324.35141
530.625	4361.91889
530.923	4316.44046
531.221	4276.87498
531.52	4289.73573
531.818	4306.55077
532.116	4262.03326
532.413	4226.40255
532.711	4206.60116
533.009	4268.95971
533.307	4363.89569
533.605	4304.5727
533.903	4276.87498
534.2	4312.48472
534.498	4369.82584
534.796	4374.76734
535.093	4369.82584
535.391	4358.9536
535.689	4300.61642
535.986	4303.58364
536.284	4263.02279
536.581	4333.25039
536.878	4478.47908
537.176	4410.33837
537.473	4300.61642
537.77	4319.40715
538.068	4345.11432
538.365	4358.9536
538.662	4358.9536
538.959	4284.78952
539.256	4231.35216
539.554	4211.55195
539.851	4294.68167
540.148	4364.88407
540.445	4332.26166
540.742	4292.70333
541.039	4244.21978
541.335	4284.78952
541.632	4291.71414
541.929	4257.08545
542.226	4315.45154
542.523	4410.33837
542.819	4380.69679
543.116	4347.09149
543.413	4324.35141
543.709	4333.25039
544.006	4364.88407
544.302	4417.25339
544.599	4392.55455
544.895	4273.90684
545.192	4299.62732
545.488	4426.14339
545.785	4405.39876
546.081	4309.51779
546.377	4301.60551
546.673	4375.75561
546.97	4345.11432
547.266	4279.84302
547.562	4369.82584
547.858	4351.0457
548.154	4262.03326
548.45	4229.37235
548.746	4342.14849
549.042	4427.13112
549.338	4418.24121
549.634	4335.22782
549.93	4312.48472
550.226	4280.83234
550.522	4264.0123
550.818	4344.12572
551.113	4341.15985
551.409	4364.88407
551.705	4303.58364
552	4220.46263
552.296	4328.30663
552.592	4423.18015
552.887	4302.59458
553.183	4301.60551
553.478	4320.39602
553.774	4136.2675
554.069	4247.18896
554.364	4353.02274
554.66	4249.16835
554.955	4348.08006
555.25	4404.4108
555.546	4342.14849
555.841	4352.03423
556.136	4309.51779
556.431	4237.29131
556.726	4225.41259
557.021	4208.58151
557.316	4315.45154
557.611	4325.34023
557.906	4242.24028
558.201	4191.747
558.496	4142.21357
558.791	4200.65982
559.086	4205.61096
559.381	4199.66955
559.675	4242.24028
559.97	4259.06461
560.265	4279.84302
560.56	4206.60116
560.854	4174.90903
561.149	4218.48256
561.443	4131.31211
561.738	4094.63255
562.032	4180.85224
562.327	4120.40916
562.621	4046.03033
562.916	4101.57324
563.21	4144.19549
563.504	4077.77402
563.799	3996.40435
564.093	4080.74932
564.387	4043.05369
564.681	3965.61978
564.976	4009.31025
565.27	4006.33216
565.564	4094.63255
565.858	4018.2438
566.152	3850.31128
566.446	3902.02391
566.74	3937.80337
567.034	3949.72597
567.328	3980.51713
567.622	4115.45278
567.916	4129.32987
568.209	4049.00686
568.503	3989.45411
568.797	3827.42649
569.091	3913.95234
569.384	4055.95164
569.678	3957.6733
569.972	3922.89739
570.265	3998.39002
570.559	3946.7455
570.852	3994.41864
571.146	3966.61303
571.439	3851.3061
571.733	3908.9824
572.026	3893.07629
572.319	3875.17775
572.613	3918.92195
572.906	3968.59949
573.199	4045.03813
573.492	3908.9824
573.786	3772.67205
574.079	3911.96441
574.372	3956.67993
574.665	3888.10492
574.958	3878.16115
575.251	3825.43616
575.544	3780.63898
575.837	3783.62634
576.13	3800.55234
576.423	3797.56569
576.716	3753.74699
577.009	3741.79169
577.301	3801.54786
577.594	3804.53434
577.887	3718.87163
578.18	3801.54786
578.472	3871.19969
578.765	3868.216
579.057	3762.71213
579.35	3691.95582
579.643	3691.95582
579.935	3661.03959
580.228	3695.94401
580.52	3704.91659
580.813	3680.98713
581.105	3694.94698
581.397	3690.95874
581.69	3640.08845
581.982	3672.01145
582.274	3754.74318
582.566	3735.81327
582.859	3703.91969
583.151	3676.00078
583.443	3710.89766
583.735	3819.46484
584.027	3752.7508
584.319	3660.04206
584.611	3644.07964
584.903	3561.21494
585.195	3611.14544
585.487	3670.01669
585.779	3684.97595
586.071	3702.92278
586.363	3656.0518
586.654	3654.05658
586.946	3606.15403
587.238	3541.23252
587.529	3555.22083
587.821	3620.12906
588.113	3690.95874
588.404	3664.03209
588.696	3529.24025
588.987	3502.24993
589.279	3604.15736
589.57	3577.19667
589.862	3559.21696
590.153	3636.09704
590.445	3577.19667
590.736	3567.20853
591.027	3576.19792
591.319	3550.22533
591.61	3561.21494
591.901	3579.19412
592.192	3522.24379
592.484	3454.24066
592.775	3494.25074
593.066	3537.23533
593.357	3660.04206
593.648	3641.08627
593.939	3492.25079
594.23	3480.24989
594.521	3412.20472
594.812	3431.2242
595.103	3482.25019
595.393	3478.24953
595.684	3398.18696
595.975	3354.11232
596.266	3416.20926
596.557	3407.19871
596.847	3322.0401
597.138	3281.92861
597.429	3230.75235
597.719	3232.75998
598.01	3235.77131
598.3	3207.66037
598.591	3226.73691
598.881	3316.02488
599.172	3318.03001
599.462	3207.66037
599.753	3215.69324
600.043	3279.92242
600.333	3254.84005
600.624	3209.66868
600.914	3226.73691
601.204	3159.44353
601.494	3120.24265
601.785	3130.29626
602.075	3154.41901
602.365	3135.32253
602.655	3053.85259
602.945	3063.91572
603.235	3110.18759
603.525	3051.83979
603.815	2933.99196
604.105	2951.12717
604.395	3117.22629
604.685	3129.29097
604.975	3106.16516
605.265	3091.079
605.554	3034.72869
605.844	3086.04955
606.134	3059.89064
606.424	2929.95955
606.713	2849.26459
607.003	2869.44666
607.293	2983.37066
607.582	3015.59964
607.872	2967.25072
608.161	2921.89407
608.451	2875.5002
608.74	2916.85268
609.03	2924.91873
609.319	2846.23681
609.608	2875.5002
609.898	2901.72644
610.187	2875.5002
610.476	2877.51794
610.766	2922.9023
611.055	2967.25072
611.344	2893.65783
611.633	2824.02927
611.922	2897.69225
612.211	2936.00807
612.501	2930.96767
612.79	2933.99196
613.079	2905.76041
613.368	2877.51794
613.657	2876.50907
613.946	2921.89407
614.234	2878.52678
614.523	2888.61449
614.812	2938.02414
615.101	2845.22752
615.39	2872.47349
615.679	2873.48241
615.967	2963.22017
616.256	3034.72869
616.545	2849.26459
616.833	2806.86436
617.122	2840.18087
617.411	2842.19957
617.699	2904.75194
617.988	2861.3745
618.276	2865.41069
618.565	2884.57958
618.853	2834.12443
619.141	2821.00045
619.43	2854.31063
619.718	2922.9023
620.007	2883.57081
620.295	2914.83603
620.583	2896.68366
620.871	2924.91873
621.16	2938.02414
621.448	2868.43769
621.736	2928.95141
622.024	2899.70937
622.312	2809.89375
622.6	2817.97152
622.888	2850.27383
623.176	2822.01007
623.464	2747.26154
623.752	2739.17619
624.04	2850.27383
624.328	2858.34721
624.616	2728.05742
624.904	2672.4394
625.192	2725.02475
625.479	2747.26154
625.767	2721.99196
626.055	2726.03565
626.343	2737.15471
626.63	2672.4394
626.918	2624.87962
627.206	2671.42779
627.493	2647.14525
627.781	2621.84291
628.068	2631.96483
628.356	2667.38123
628.643	2716.93704
628.931	2658.27569
629.218	2551.96633
629.505	2571.21383
629.793	2625.89183
630.08	2618.80608
630.367	2512.44381
630.655	2486.08473
630.942	2524.60665
631.229	2560.0711
631.516	2595.51983
631.804	2503.32048
632.091	2468.84533
632.378	2466.81692
632.665	2485.07075
632.952	2531.70079
633.239	2512.44381
633.526	2525.62014
633.813	2591.46935
634.1	2508.38913
634.387	2405.9415
634.674	2456.67415
634.961	2539.80762
635.247	2532.71419
635.534	2424.20885
635.821	2419.13499
636.108	2424.20885
636.394	2425.22358
636.681	2419.13499
636.968	2314.54457
637.255	2328.76843
637.541	2405.9415
637.828	2378.53292
638.114	2304.3832
638.401	2373.45627
638.687	2317.59274
638.974	2199.64995
639.26	2386.65492
639.547	2473.91612
639.833	2354.16218
640.119	2324.70471
640.406	2316.5767
640.692	2316.5767
640.978	2381.57877
641.265	2418.12018
641.551	2331.81608
641.837	2276.94139
642.123	2318.60878
642.409	2349.08404
642.696	2329.78432
642.982	2271.85859
643.268	2283.04034
643.554	2356.19334
643.84	2466.81692
644.126	2414.06082
644.412	2499.26534
644.698	2521.56611
644.984	2403.91154
645.269	2380.5635
645.555	2388.6853
645.841	2496.22385
646.127	2444.50116
646.413	2406.95645
646.698	2451.60229
646.984	2475.94435
647.27	2497.23769
647.556	2510.4165
647.841	2540.82092
648.127	2618.80608
648.412	2628.92839
648.698	2646.13332
648.984	2711.88178
649.269	2726.03565
649.554	2750.29333
649.84	2719.97003
650.125	2798.78539
650.411	2764.44006
650.696	2647.14525
650.982	2758.3775
651.267	2790.70555
651.552	2678.50877
651.837	2604.63266
652.123	2628.92839
652.408	2659.28747
652.693	2620.83064
652.978	2588.43135
653.263	2546.90042
653.549	2561.08414
653.834	2559.05805
654.119	2463.77422
654.404	2418.12018
654.689	2488.11266
654.974	2512.44381
655.259	2498.25152
655.544	2602.60768
655.828	2639.04939
656.113	2602.60768
656.398	2637.02529
656.683	2779.59434
656.968	1977.55284
657.253	849.57758
657.537	624.4559
657.822	618.10366
658.107	567.19418
658.391	564.00676
658.676	588.42663
658.961	582.05997
659.245	565.06931
659.53	542.73986
659.814	562.94414
660.099	584.18248
660.383	565.06931
660.668	552.31374
