Data from sample_5_A_6Oclock_ST026791__106__23215.txt Node

Date: Tue Aug 19 16:41:43 AEST 2025
User: mathewyoussef
Spectrometer: ST02679
Trigger mode: 0
Integration Time (sec): 6.653700E-1
Scans to average: 1
Nonlinearity correction enabled: true
Boxcar width: 0
Storing dark spectrum: false
XAxis mode: Wavelengths
Number of Pixels in Spectrum: 1516
>>>>>Begin Spectral Data<<<<<
187.304	606.45143
187.653	651.95411
188.002	650.89731
188.351	597.97173
188.7	579.93717
189.048	597.97173
189.397	630.80567
189.746	625.51436
190.094	618.10366
190.443	640.32577
190.791	627.63109
191.14	582.05997
191.488	599.03194
191.837	620.22135
192.185	608.57064
192.533	595.8511
192.881	602.21215
193.229	615.9857
193.577	648.78353
193.925	645.61237
194.273	623.39736
194.621	640.32577
194.969	619.16254
195.317	603.27207
195.664	630.80567
196.012	626.57276
196.359	600.09208
196.707	606.45143
197.054	590.54827
197.402	583.12126
197.749	601.15215
198.096	596.91145
198.443	575.69069
198.791	580.99861
199.138	611.74894
199.485	611.74894
199.832	621.28009
200.179	600.09208
200.525	570.38093
200.872	596.91145
201.219	603.27207
201.566	620.22135
201.912	626.57276
202.259	596.91145
202.605	586.3047
202.952	600.09208
203.298	618.10366
203.644	615.9857
203.991	603.27207
204.337	602.21215
204.683	597.97173
205.029	596.91145
205.375	578.87566
205.721	614.92662
206.067	645.61237
206.413	635.0375
206.759	637.15301
207.104	608.57064
207.45	600.09208
207.796	588.42663
208.141	577.81408
208.487	621.28009
208.832	613.86746
209.177	591.60898
209.523	628.68935
209.868	620.22135
210.213	572.50506
210.558	565.06931
210.903	621.28009
211.248	613.86746
211.593	564.00676
211.938	576.75242
212.283	609.63015
212.628	606.45143
212.973	604.33193
213.317	605.39171
213.662	596.91145
214.007	582.05997
214.351	575.69069
214.696	573.56701
215.04	575.69069
215.384	599.03194
215.729	604.33193
216.073	623.39736
216.417	602.21215
216.761	577.81408
217.105	615.9857
217.449	636.09528
217.793	624.4559
218.137	594.79068
218.481	592.66961
218.824	643.49793
219.168	615.9857
219.512	592.66961
219.855	609.63015
220.199	573.56701
220.542	558.69289
220.886	626.57276
221.229	662.51844
221.572	624.4559
221.916	618.10366
222.259	620.22135
222.602	603.27207
222.945	610.68958
223.288	607.51107
223.631	586.3047
223.974	605.39171
224.317	599.03194
224.659	606.45143
225.002	633.97964
225.345	607.51107
225.687	614.92662
226.03	643.49793
226.372	620.22135
226.715	578.87566
227.057	555.50366
227.4	565.06931
227.742	603.27207
228.084	604.33193
228.426	605.39171
228.768	593.73018
229.11	556.56681
229.452	556.56681
229.794	586.3047
230.136	609.63015
230.478	584.18248
230.82	592.66961
231.161	599.03194
231.503	637.15301
231.845	666.74236
232.186	682.573
232.528	640.32577
232.869	562.94414
233.21	603.27207
233.552	609.63015
233.893	609.63015
234.234	623.39736
234.575	602.21215
234.916	635.0375
235.257	630.80567
235.598	595.8511
235.939	601.15215
236.28	607.51107
236.621	602.21215
236.961	605.39171
237.302	620.22135
237.643	600.09208
237.983	594.79068
238.324	610.68958
238.664	646.66949
239.005	636.09528
239.345	599.03194
239.685	621.28009
240.025	620.22135
240.366	576.75242
240.706	591.60898
241.046	621.28009
241.386	595.8511
241.726	591.60898
242.066	586.3047
242.405	588.42663
242.745	624.4559
243.085	595.8511
243.425	589.48748
243.764	669.90963
244.104	723.66772
244.443	670.96526
244.783	590.54827
245.122	569.31875
245.461	593.73018
245.801	621.28009
246.14	601.15215
246.479	576.75242
246.818	567.19418
247.157	618.10366
247.496	643.49793
247.835	590.54827
248.174	586.3047
248.513	587.3657
248.852	619.16254
249.19	639.26825
249.529	610.68958
249.868	614.92662
250.206	602.21215
250.545	574.62889
250.883	574.62889
251.221	578.87566
251.56	588.42663
251.898	559.75581
252.236	558.69289
252.574	603.27207
252.912	593.73018
253.25	569.31875
253.588	573.56701
253.926	608.57064
254.264	606.45143
254.602	624.4559
254.94	625.51436
255.278	573.56701
255.615	591.60898
255.953	639.26825
256.29	621.28009
256.628	591.60898
256.965	584.18248
257.303	600.09208
257.64	633.97964
257.977	615.9857
258.314	577.81408
258.652	576.75242
258.989	607.51107
259.326	614.92662
259.663	595.8511
260	587.3657
260.337	570.38093
260.673	548.05945
261.01	578.87566
261.347	586.3047
261.684	580.99861
262.02	617.04472
262.357	629.74755
262.693	612.80824
263.03	597.97173
263.366	597.97173
263.702	579.93717
264.039	595.8511
264.375	602.21215
264.711	625.51436
265.047	637.15301
265.383	607.51107
265.719	593.73018
266.055	576.75242
266.391	610.68958
266.727	611.74894
267.063	575.69069
267.399	593.73018
267.734	631.86373
268.07	627.63109
268.405	636.09528
268.741	670.96526
269.076	647.72654
269.412	570.38093
269.747	566.13178
270.082	600.09208
270.418	585.24363
270.753	607.51107
271.088	625.51436
271.423	600.09208
271.758	589.48748
272.093	624.4559
272.428	625.51436
272.763	624.4559
273.098	631.86373
273.433	603.27207
273.767	594.79068
274.102	597.97173
274.436	586.3047
274.771	596.91145
275.106	625.51436
275.44	640.32577
275.774	611.74894
276.109	573.56701
276.443	558.69289
276.777	546.99569
277.111	594.79068
277.445	638.21066
277.78	619.16254
278.114	641.38322
278.447	639.26825
278.781	599.03194
279.115	590.54827
279.449	584.18248
279.783	604.33193
280.116	602.21215
280.45	579.93717
280.784	578.87566
281.117	608.57064
281.451	619.16254
281.784	662.51844
282.117	673.07633
282.451	595.8511
282.784	595.8511
283.117	605.39171
283.45	630.80567
283.783	617.04472
284.116	584.18248
284.449	618.10366
284.782	643.49793
285.115	636.09528
285.448	595.8511
285.781	584.18248
286.114	585.24363
286.446	609.63015
286.779	661.4623
287.111	629.74755
287.444	600.09208
287.776	610.68958
288.109	600.09208
288.441	589.48748
288.773	584.18248
289.106	629.74755
289.438	637.15301
289.77	623.39736
290.102	623.39736
290.434	597.97173
290.766	675.18714
291.098	679.40801
291.43	633.97964
291.762	644.55518
292.094	636.09528
292.425	621.28009
292.757	617.04472
293.089	670.96526
293.42	644.55518
293.752	620.22135
294.083	635.0375
294.414	670.96526
294.746	700.49741
295.077	659.34982
295.408	672.02082
295.74	747.86091
296.071	701.55124
296.402	633.97964
296.733	669.90963
297.064	647.72654
297.395	632.92172
297.726	684.68268
298.056	721.56251
298.387	717.3514
298.718	751.01432
299.049	819.21826
299.379	726.82508
299.71	653.01083
300.04	695.22737
300.371	707.87292
300.701	729.98193
301.031	790.91461
301.362	810.8359
301.692	799.30481
302.022	777.27332
302.352	798.25622
302.682	802.45027
303.012	724.72023
303.342	776.22362
303.672	837.02012
304.002	849.57758
304.332	835.97335
304.662	822.36082
304.992	835.97335
305.321	841.20672
305.651	860.03683
305.98	868.40083
306.31	868.40083
306.639	897.65156
306.969	922.69574
307.298	906.00242
307.628	898.69557
307.957	919.56659
308.286	966.46425
308.615	1015.35986
308.944	1017.43867
309.273	981.03784
309.602	987.28131
309.931	1036.14132
310.26	1038.21866
310.589	1063.13583
310.918	1062.09802
311.247	1100.47468
311.575	1120.16418
311.904	1108.7664
312.233	1176.06288
312.561	1107.73005
312.89	1112.9115
313.218	1262.85117
313.546	1308.23858
313.875	1186.40501
314.203	1114.98385
314.531	1183.30267
314.859	1208.11429
315.188	1223.61345
315.516	1249.43198
315.844	1264.91528
316.172	1345.33927
316.5	1314.42413
316.827	1239.10655
317.155	1332.9757
317.483	1344.3091
317.811	1250.46438
318.138	1222.58036
318.466	1269.04319
318.794	1312.36237
319.121	1299.98984
319.449	1323.70086
319.776	1306.17654
320.103	1295.86489
320.431	1384.46934
320.758	1404.02266
321.085	1394.76151
321.412	1424.59696
321.739	1441.05053
322.066	1460.58254
322.393	1424.59696
322.72	1425.62546
323.047	1457.49901
323.374	1525.29734
323.701	1474.97006
324.028	1472.91493
324.354	1502.70691
324.681	1458.52688
325.008	1576.60729
325.334	1580.71022
325.661	1555.06241
325.987	1576.60729
326.314	1623.77495
326.64	1624.79995
326.966	1596.09383
327.293	1631.9745
327.619	1645.29658
327.945	1655.54251
328.271	1694.46295
328.597	1699.58242
328.923	1713.91495
329.249	1665.78689
329.575	1613.52407
329.901	1618.64971
330.227	1644.27189
330.552	1711.86763
330.878	1695.48687
331.204	1711.86763
331.529	1706.74905
331.855	1725.17419
332.18	1756.89525
332.506	1663.73814
332.831	1681.15055
333.156	1799.85029
333.482	1811.09634
333.807	1767.1249
334.132	1775.3076
334.457	1774.28481
334.782	1747.68734
335.107	1771.21637
335.432	1749.73365
335.757	1733.36161
336.082	1749.73365
336.407	1766.102
336.732	1811.09634
337.057	1817.22985
337.381	1804.96234
337.706	1840.73707
338.031	1859.12903
338.355	1852.99886
338.68	1910.19522
339.004	1882.62357
339.329	1945.92213
339.653	1978.57299
339.977	1839.71517
340.301	1852.99886
340.626	1901.00573
340.95	1964.28984
341.274	1929.59179
341.598	1872.40942
341.922	1939.79864
342.246	1927.55027
342.57	1942.86044
342.894	1979.59312
343.218	1998.97318
343.541	2053.00944
343.865	2003.05261
344.189	2011.21088
344.512	2056.06705
344.836	2034.66143
345.159	2011.21088
345.483	2022.42718
345.806	1985.71363
346.13	2054.02866
346.453	2086.63704
346.776	1998.97318
347.099	2122.28802
347.423	2184.38673
347.746	2080.52393
348.069	2075.42934
348.392	2156.90603
348.715	2100.89924
349.038	2102.9365
349.361	2128.39811
349.683	2149.77995
350.006	2182.35143
350.329	2113.12206
350.652	2146.72573
350.974	2209.8239
351.297	2205.75447
351.619	2203.71967
351.942	2230.16815
352.264	2276.94139
352.587	2296.25323
352.909	2305.39939
353.231	2297.26952
353.554	2275.92485
353.876	2295.23692
354.198	2379.54822
354.52	2405.9415
354.842	2321.6568
355.164	2347.0527
355.486	2428.26771
355.808	2298.28579
356.13	2245.42313
356.452	2415.07567
356.773	2434.35563
357.095	2320.6408
357.417	2336.89526
357.738	2392.7459
358.06	2457.68848
358.381	2405.9415
358.703	2335.87945
359.024	2392.7459
359.346	2393.76102
359.667	2346.03701
359.988	2352.13096
360.309	2393.76102
360.631	2421.16457
360.952	2436.38483
361.273	2391.73077
361.594	2446.53012
361.915	2508.38913
362.236	2463.77422
362.557	2482.02873
362.878	2507.37542
363.198	2531.70079
363.519	2492.16836
363.84	2428.26771
364.16	2423.1941
364.481	2476.95844
364.802	2478.98659
365.122	2469.85951
365.443	2557.03191
365.763	2558.04499
366.083	2531.70079
366.404	2467.83113
366.724	2491.15445
367.044	2606.65759
367.364	2581.34224
367.685	2518.52546
368.005	2439.42855
368.325	2437.39942
368.645	2546.90042
368.965	2540.82092
369.284	2532.71419
369.604	2570.20092
369.924	2569.188
370.244	2697.7253
370.564	2663.33445
370.883	2537.78099
371.203	2607.67003
371.522	2633.98905
371.842	2721.99196
372.161	2755.34604
372.481	2676.4857
372.8	2617.79378
373.119	2695.70273
373.439	2798.78539
373.758	2740.1869
374.077	2708.84847
374.396	2766.46081
374.715	2716.93704
375.034	2574.25249
375.353	2573.23962
375.672	2519.53903
375.991	2371.42552
376.31	2212.87585
376.629	2126.36146
376.948	2253.558
377.266	2391.73077
377.585	2481.0147
377.904	2585.39324
378.222	2655.24027
378.541	2691.65744
378.859	2730.07914
379.178	2811.91327
379.496	2812.92301
379.814	2779.59434
380.133	2699.74782
380.451	2635.00115
380.769	2606.65759
381.087	2588.43135
381.405	2619.81837
381.723	2584.3805
382.041	2669.40454
382.359	2699.74782
382.677	2686.60052
382.995	2776.56373
383.313	2779.59434
383.631	2662.32273
383.949	2661.31099
384.266	2769.49183
384.584	2803.83485
384.901	2817.97152
385.219	2784.64509
385.537	2717.94805
385.854	2723.0029
386.171	2732.1008
386.489	2797.77545
386.806	2841.19022
387.123	2841.19022
387.441	2888.61449
387.758	2936.00807
388.075	2828.0675
388.392	2725.02475
388.709	2703.79268
389.026	2670.41617
389.343	2775.5535
389.66	2872.47349
389.977	2947.09572
390.294	2838.16211
390.61	2746.25092
390.927	2864.40166
391.244	2852.29226
391.56	2780.60452
391.877	2749.28275
392.193	2745.24028
392.51	2819.99082
392.826	2809.89375
393.143	2799.79531
393.459	2804.8447
393.775	2822.01007
394.092	2822.01007
394.408	2780.60452
394.724	2856.32894
395.04	2916.85268
395.356	2911.81095
395.672	3000.49411
395.988	3085.04362
396.304	3065.92818
396.62	3027.68175
396.936	3125.26964
397.252	3177.52879
397.567	3130.29626
397.883	3198.62228
398.199	3168.48675
398.514	3064.92196
398.83	3074.98351
399.146	3106.16516
399.461	3111.19316
399.777	3066.93438
400.092	3065.92818
400.407	3076.99565
400.723	2992.43653
401.038	2943.06405
401.353	3018.62036
401.668	3019.62723
401.983	2958.18167
402.298	2975.31114
402.613	2941.04813
402.928	2856.32894
403.243	2813.93274
403.558	2844.21822
403.873	2917.86099
404.188	2935.00002
404.503	2880.54444
404.817	2862.38356
405.132	2842.19957
405.447	2856.32894
405.761	3006.53671
406.076	3060.89693
406.39	2999.48696
406.705	2956.16617
407.019	3033.72203
407.334	3085.04362
407.648	2957.17393
407.962	2926.9351
408.276	2968.25832
408.591	2924.91873
408.905	2941.04813
409.219	3044.79455
409.533	3099.12536
409.847	3082.02574
410.161	3039.7618
410.475	3080.01374
410.789	3057.87802
411.102	3011.57181
411.416	3155.42395
411.73	3175.51955
412.044	3117.22629
412.357	3039.7618
412.671	2950.11933
412.984	2986.39274
413.298	3009.55781
413.611	3116.2208
413.925	3162.45807
414.238	3104.15386
414.552	3106.16516
414.865	3050.83337
415.178	2986.39274
415.491	2952.135
415.804	3020.6341
416.118	3037.7486
416.431	2937.01611
416.744	2977.32611
417.057	3009.55781
417.37	2946.08783
417.683	2904.75194
417.995	2908.78574
418.308	2971.28105
418.621	2933.99196
418.934	2868.43769
419.246	2938.02414
419.559	3013.58575
419.872	3081.01975
420.184	3063.91572
420.497	3042.78149
420.809	3153.41407
421.121	3081.01975
421.434	2984.37803
421.746	3024.66141
422.058	3063.91572
422.371	3130.29626
422.683	3056.87168
422.995	2965.23548
423.307	3012.57879
423.619	3060.89693
423.931	2968.25832
424.243	2937.01611
424.555	2951.12717
424.867	2905.76041
425.179	2879.53562
425.491	2830.08653
425.802	2859.35632
426.114	2848.25535
426.426	2773.533
426.737	2801.8151
427.049	2911.81095
427.361	3032.71535
427.672	2991.42926
427.984	2828.0675
428.295	2856.32894
428.606	2850.27383
428.918	2841.19022
429.229	3022.64778
429.54	2946.08783
429.851	2748.27215
430.163	2673.451
430.474	2719.97003
430.785	2848.25535
431.096	2846.23681
431.407	2813.93274
431.718	2806.86436
432.029	2814.94245
432.339	2875.5002
432.65	2908.78574
432.961	2869.44666
433.272	2800.80521
433.582	2856.32894
433.893	2853.30145
434.204	2761.40884
434.514	2769.49183
434.825	2802.82498
435.135	2790.70555
435.446	2796.76551
435.756	2876.50907
436.066	2868.43769
436.377	2905.76041
436.687	2905.76041
436.997	2844.21822
437.307	2861.3745
437.617	2845.22752
437.927	2816.96184
438.237	2819.99082
438.547	2923.91052
438.857	2947.09572
439.167	2911.81095
439.477	2933.99196
439.787	2961.20482
440.097	2912.81933
440.407	2825.03885
440.716	2828.0675
441.026	2903.74345
441.336	2962.2125
441.645	2913.82769
441.955	2851.28305
442.264	2883.57081
442.574	2961.20482
442.883	2990.42199
443.192	2933.99196
443.502	2933.99196
443.811	2957.17393
444.12	2942.05609
444.429	2868.43769
444.739	2799.79531
445.048	2910.80256
445.357	2993.44377
445.666	2856.32894
445.975	2786.6653
446.284	2812.92301
446.593	2829.07702
446.901	2834.12443
447.21	2825.03885
447.519	2815.95216
447.828	2811.91327
448.136	2792.72559
448.445	2851.28305
448.754	2855.31979
449.062	2831.09602
449.371	2903.74345
449.679	2921.89407
449.988	2932.98388
450.296	3046.80755
450.605	3138.33811
450.913	3267.88403
451.221	3495.25069
451.529	3499.25034
451.838	3356.11633
452.146	3321.0376
452.454	3355.11433
452.762	3403.19363
453.07	3262.86741
453.378	3138.33811
453.686	3134.3173
453.994	3181.54709
454.302	3159.44353
454.609	2976.31863
454.917	2935.00002
455.225	2984.37803
455.533	3007.54376
455.84	2923.91052
456.148	2884.57958
456.455	2870.45562
456.763	2896.68366
457.07	3052.8462
457.378	3104.15386
457.685	2981.35586
457.993	2870.45562
458.3	2917.86099
458.607	3068.94675
458.915	3170.49619
459.222	3174.51491
459.529	3148.38911
459.836	3140.34843
460.143	3015.59964
460.45	2967.25072
460.757	2970.27349
461.064	3023.6546
461.371	3142.35868
461.678	3042.78149
461.985	3019.62723
462.292	3137.33293
462.598	3203.64359
462.905	3310.00912
463.212	3450.23836
463.518	3381.1615
463.825	3389.17401
464.131	3740.79532
464.438	3822.45056
464.744	3663.0346
465.051	3592.17614
465.357	3610.14718
465.664	3595.17164
465.97	3483.25031
466.276	3440.23157
466.582	3334.06895
466.889	3316.02488
467.195	3403.19363
467.501	3509.24845
467.807	3861.25358
468.113	4104.54764
468.419	4216.50244
468.725	4307.53979
469.031	4424.16791
469.337	4662.92496
469.642	4607.72221
469.948	4456.75823
470.254	4359.94204
470.56	4116.44408
470.865	3933.82874
471.171	3887.11061
471.477	3852.30091
471.782	3747.7696
472.088	3634.10125
472.393	3685.97312
472.698	3636.09704
473.004	3438.23004
473.309	3480.24989
473.614	3603.15901
473.92	3648.07059
474.225	3694.94698
474.53	3739.79894
474.835	3725.84809
475.14	3668.02188
475.445	3602.16064
475.75	3542.23178
476.055	3456.24173
476.36	3365.13365
476.665	3227.74079
476.97	3170.49619
477.275	3285.94082
477.58	3261.86404
477.885	3248.81892
478.189	3207.66037
478.494	3089.06726
478.799	3041.77494
479.103	3024.66141
479.408	3057.87802
479.712	3111.19316
480.017	3187.57411
480.321	3251.82955
480.625	3202.63936
480.93	3335.07126
481.234	3604.15736
481.538	3669.0193
481.843	3695.94401
482.147	3815.48368
482.451	3929.85389
482.755	3947.739
483.059	3856.28001
483.363	3898.04733
483.667	4023.20642
483.971	4002.3612
484.275	3985.48225
484.579	4087.69125
484.883	4194.71805
485.187	4207.59134
485.49	4129.32987
485.794	4048.0147
486.098	4057.93575
486.401	4020.22889
486.705	3934.82241
487.009	3862.24826
487.312	3946.7455
487.616	4011.29557
487.919	3891.08779
488.222	3874.18326
488.526	3900.03564
488.829	3876.17223
489.132	3956.67993
489.436	3871.19969
489.739	3875.17775
490.042	4031.14595
490.345	4010.30291
490.648	3943.76491
490.951	3841.35723
491.254	3913.95234
491.557	4064.87973
491.86	4091.65778
492.163	4187.78544
492.466	4329.2954
492.769	4451.82101
493.072	4495.26013
493.375	4545.58678
493.677	4638.28411
493.98	4575.17948
494.283	4527.82722
494.585	4538.68064
494.888	4510.06463
495.19	4447.87105
495.493	4394.5307
495.795	4253.12699
496.098	4220.46263
496.4	4284.78952
496.702	4232.34205
497.005	4229.37235
497.307	4251.14769
497.609	4154.10436
497.911	4095.62412
498.213	4084.71621
498.515	4105.53907
498.818	4152.12269
499.12	4078.7658
499.422	3994.41864
499.723	4010.30291
500.025	4139.24059
500.327	4120.40916
500.629	4124.37404
500.931	4199.66955
501.233	4103.55618
501.534	4104.54764
501.836	4144.19549
502.138	4131.31211
502.439	4177.88069
502.741	4185.80459
503.042	4257.08545
503.344	4275.88561
503.645	4328.30663
503.947	4362.90729
504.248	4309.51779
504.55	4303.58364
504.851	4362.90729
505.152	4408.36255
505.453	4341.15985
505.755	4389.59025
506.056	4335.22782
506.357	4304.5727
506.658	4436.02021
506.959	4356.97669
507.26	4370.81416
507.561	4374.76734
507.862	4241.25051
508.163	4275.88561
508.464	4354.99974
508.764	4417.25339
509.065	4289.73573
509.366	4332.26166
509.667	4479.46627
509.967	4439.97065
510.268	4415.27772
510.569	4428.11884
510.869	4372.79077
511.17	4266.98078
511.47	4354.99974
511.771	4345.11432
512.071	4412.31414
512.371	4474.53019
512.672	4298.63821
512.972	4285.77878
513.272	4302.59458
513.573	4295.67082
513.873	4354.01125
514.173	4316.44046
514.473	4322.37374
514.773	4345.11432
515.073	4350.05717
515.373	4383.66137
515.673	4304.5727
515.973	4261.04372
516.273	4292.70333
516.573	4341.15985
516.873	4324.35141
517.172	4354.99974
517.472	4301.60551
517.772	4238.28112
518.072	4295.67082
518.371	4391.56646
518.671	4422.19238
518.97	4302.59458
519.27	4329.2954
519.569	4354.99974
519.869	4290.72494
520.168	4320.39602
520.468	4314.46261
520.767	4270.9386
521.066	4271.92802
521.366	4332.26166
521.665	4265.9913
521.964	4179.86174
522.263	4281.82165
522.562	4357.96515
522.861	4250.15802
523.161	4184.81414
523.46	4223.43264
523.759	4298.63821
524.057	4406.3867
524.356	4396.5068
524.655	4274.89623
524.954	4242.24028
525.253	4337.20521
525.552	4385.63771
525.85	4332.26166
526.149	4281.82165
526.448	4351.0457
526.746	4244.21978
527.045	4134.28538
527.344	4317.42937
527.642	4465.64461
527.941	4429.10654
528.239	4381.685
528.537	4362.90729
528.836	4300.61642
529.134	4221.45264
529.432	4255.10624
529.731	4269.94916
530.029	4325.34023
530.327	4392.55455
530.625	4261.04372
530.923	4165.00272
531.221	4249.16835
531.52	4362.90729
531.818	4364.88407
532.116	4327.31784
532.413	4276.87498
532.711	4266.98078
533.009	4280.83234
533.307	4258.07503
533.605	4215.51237
533.903	4220.46263
534.2	4236.30148
534.498	4233.33192
534.796	4309.51779
535.093	4307.53979
535.391	4250.15802
535.689	4238.28112
535.986	4286.76804
536.284	4251.14769
536.581	4210.56181
536.878	4306.55077
537.176	4300.61642
537.473	4275.88561
537.77	4288.74651
538.068	4287.75728
538.365	4357.96515
538.662	4370.81416
538.959	4303.58364
539.256	4255.10624
539.554	4298.63821
539.851	4382.67319
540.148	4267.97026
540.445	4225.41259
540.742	4267.97026
541.039	4191.747
541.335	4261.04372
541.632	4311.49575
541.929	4311.49575
542.226	4361.91889
542.523	4368.83751
542.819	4293.6925
543.116	4237.29131
543.413	4269.94916
543.709	4229.37235
544.006	4345.11432
544.302	4406.3867
544.599	4304.5727
544.895	4273.90684
545.192	4224.42262
545.488	4289.73573
545.785	4298.63821
546.081	4320.39602
546.377	4385.63771
546.673	4285.77878
546.97	4235.31164
547.266	4352.03423
547.562	4363.89569
547.858	4329.2954
548.154	4362.90729
548.45	4316.44046
548.746	4349.06862
549.042	4397.49484
549.338	4257.08545
549.634	4261.04372
549.93	4275.88561
550.226	4237.29131
550.522	4341.15985
550.818	4312.48472
551.113	4226.40255
551.409	4274.89623
551.705	4304.5727
552	4279.84302
552.296	4357.96515
552.592	4460.70783
552.887	4418.24121
553.183	4413.30201
553.478	4330.28417
553.774	4285.77878
554.069	4335.22782
554.364	4312.48472
554.66	4272.91744
554.955	4222.44265
555.25	4216.50244
555.546	4169.95603
555.841	4234.32179
556.136	4261.04372
556.431	4249.16835
556.726	4243.23004
557.021	4201.65007
557.316	4149.15008
557.611	4178.87122
557.906	4255.10624
558.201	4244.21978
558.496	4229.37235
558.791	4227.39249
559.086	4195.70837
559.381	4195.70837
559.675	4243.23004
559.97	4254.11662
560.265	4288.74651
560.56	4300.61642
560.854	4307.53979
561.149	4287.75728
561.443	4173.91846
561.738	4067.85552
562.032	4094.63255
562.327	4136.2675
562.621	4110.49608
562.916	4098.59874
563.21	4137.25855
563.504	4074.79861
563.799	4001.36842
564.093	4059.91981
564.387	4022.21393
564.681	4027.17629
564.976	4072.81493
565.27	3987.46821
565.564	4016.25865
565.858	4063.88777
566.152	3972.57225
566.446	3908.9824
566.74	3925.87883
567.034	3932.83504
567.328	3977.5379
567.622	4082.73279
567.916	4023.20642
568.209	3975.55168
568.503	3983.49624
568.797	3913.95234
569.091	3935.81608
569.384	3982.50322
569.678	3914.94629
569.972	3895.06475
570.265	3934.82241
570.559	3842.35218
570.852	3856.28001
571.146	3896.05895
571.439	3843.34712
571.733	3895.06475
572.026	3884.12758
572.319	3948.73249
572.613	3956.67993
572.906	3900.03564
573.199	3981.51018
573.492	3903.01802
573.786	3804.53434
574.079	3888.10492
574.372	3909.97642
574.665	3905.0062
574.958	3893.07629
575.251	3763.70819
575.544	3744.78071
575.837	3803.53886
576.13	3714.88476
576.423	3774.66387
576.716	3804.53434
577.009	3691.95582
577.301	3750.75836
577.594	3760.71998
577.887	3731.82737
578.18	3711.89446
578.472	3766.69627
578.765	3825.43616
579.057	3600.16385
579.35	3565.21072
579.643	3688.96453
579.935	3665.02956
580.228	3691.95582
580.52	3732.82386
580.813	3703.91969
581.105	3656.0518
581.397	3667.02446
581.69	3671.01408
581.982	3680.98713
582.274	3762.71213
582.566	3718.87163
582.859	3642.08408
583.151	3682.98157
583.443	3660.04206
583.735	3780.63898
584.027	3845.33695
584.319	3699.93196
584.611	3650.06598
584.903	3545.22947
585.195	3485.25052
585.487	3591.17761
585.779	3590.17907
586.071	3566.20963
586.363	3630.10948
586.654	3653.05896
586.946	3624.1214
587.238	3622.12526
587.529	3686.97027
587.821	3713.88801
588.113	3608.15063
588.404	3541.23252
588.696	3495.25069
588.987	3482.25019
589.279	3632.10539
589.57	3574.20038
589.862	3498.25045
590.153	3571.20396
590.445	3577.19667
590.736	3553.22267
591.027	3543.23102
591.319	3567.20853
591.61	3545.22947
591.901	3458.24273
592.192	3461.24413
592.484	3503.24976
592.775	3530.23969
593.066	3560.21596
593.357	3610.14718
593.648	3561.21494
593.939	3408.19994
594.23	3447.23648
594.521	3462.24456
594.812	3445.23515
595.103	3479.24972
595.393	3508.2487
595.684	3533.23791
595.975	3498.25045
596.266	3441.23232
596.557	3415.20815
596.847	3334.06895
597.138	3275.90986
597.429	3253.83657
597.719	3245.80815
598.01	3241.79359
598.3	3197.61797
598.591	3165.47247
598.881	3244.80453
599.172	3266.88073
599.462	3220.71331
599.753	3188.57856
600.043	3147.38408
600.333	3097.11385
600.624	3110.18759
600.914	3187.57411
601.204	3176.52417
601.494	3146.37903
601.785	3138.33811
602.075	3139.34328
602.365	3094.09649
602.655	3069.95291
602.945	3046.80755
603.235	3045.80105
603.525	3096.10808
603.815	2997.47262
604.105	2981.35586
604.395	3138.33811
604.685	3089.06726
604.975	3037.7486
605.265	3041.77494
605.554	3003.51547
605.844	3033.72203
606.134	2989.4147
606.424	2995.45823
606.713	3025.6682
607.003	2972.28859
607.293	2996.46543
607.582	3062.90947
607.872	3022.64778
608.161	2902.73495
608.451	2850.27383
608.74	2900.71791
609.03	2883.57081
609.319	2845.22752
609.608	2831.09602
609.898	2827.05796
610.187	2897.69225
610.476	2908.78574
610.766	2885.58833
611.055	2894.66645
611.344	2837.15271
611.633	2859.35632
611.922	2880.54444
612.211	2844.21822
612.501	2895.67507
612.79	2890.63187
613.079	2867.4287
613.368	2834.12443
613.657	2810.90352
613.946	2862.38356
614.234	2887.60579
614.523	2907.77731
614.812	2952.135
615.101	2872.47349
615.39	2843.2089
615.679	2792.72559
615.967	2865.41069
616.256	2990.42199
616.545	2869.44666
616.833	2831.09602
617.122	2800.80521
617.411	2790.70555
617.699	2859.35632
617.988	2854.31063
618.276	2848.25535
618.565	2803.83485
618.853	2771.51244
619.141	2784.64509
619.43	2708.84847
619.718	2802.82498
620.007	2887.60579
620.295	2839.17149
620.583	2843.2089
620.871	2883.57081
621.16	2887.60579
621.448	2813.93274
621.736	2865.41069
622.024	2844.21822
622.312	2724.01383
622.6	2743.21897
622.888	2810.90352
623.176	2839.17149
623.464	2773.533
623.752	2698.73657
624.04	2769.49183
624.328	2754.33552
624.616	2686.60052
624.904	2650.18098
625.192	2652.20474
625.479	2690.64608
625.767	2597.54499
626.055	2613.74443
626.343	2748.27215
626.63	2688.62333
626.918	2585.39324
627.206	2602.60768
627.493	2597.54499
627.781	2623.8674
628.068	2601.59517
628.356	2595.51983
628.643	2651.19287
628.931	2558.04499
629.218	2519.53903
629.505	2568.17506
629.793	2595.51983
630.08	2507.37542
630.367	2417.10536
630.655	2496.22385
630.942	2516.4983
631.229	2545.8872
631.516	2470.87368
631.804	2413.04594
632.091	2455.6598
632.378	2497.23769
632.665	2549.94
632.952	2491.15445
633.239	2437.39942
633.526	2502.30672
633.813	2495.21
634.1	2414.06082
634.387	2460.73141
634.674	2426.2383
634.961	2378.53292
635.247	2461.74569
635.534	2438.41399
635.821	2355.17776
636.108	2392.7459
636.394	2452.61669
636.681	2437.39942
636.968	2346.03701
637.255	2342.98987
637.541	2430.29706
637.828	2372.4409
638.114	2270.842
638.401	2273.89175
638.687	2265.75883
638.974	2240.33844
639.26	2306.41557
639.547	2372.4409
639.833	2288.12246
640.119	2271.85859
640.406	2262.70879
640.692	2264.74216
640.978	2376.5023
641.265	2383.60927
641.551	2259.65863
641.837	2217.96218
642.123	2282.02388
642.409	2350.09969
642.696	2300.31831
642.982	2199.64995
643.268	2252.54118
643.554	2336.89526
643.84	2391.73077
644.126	2337.91106
644.412	2471.88784
644.698	2482.02873
644.984	2401.88154
645.269	2412.03106
645.555	2332.83194
645.841	2427.25301
646.127	2416.09052
646.413	2412.03106
646.698	2520.55258
646.984	2516.4983
647.27	2464.78847
647.556	2524.60665
647.841	2580.32945
648.127	2617.79378
648.412	2616.78146
648.698	2614.75679
648.984	2687.61193
649.269	2669.40454
649.554	2769.49183
649.84	2783.63497
650.125	2692.66878
650.411	2670.41617
650.696	2599.57011
650.982	2659.28747
651.267	2672.4394
651.552	2682.55475
651.837	2675.47415
652.123	2587.41866
652.408	2615.76913
652.693	2640.06142
652.978	2617.79378
653.263	2538.79431
653.549	2537.78099
653.834	2616.78146
654.119	2552.97947
654.404	2461.74569
654.689	2460.73141
654.974	2426.2383
655.259	2443.48666
655.544	2517.51189
655.828	2513.45745
656.113	2491.15445
656.398	2623.8674
656.683	2753.32499
656.968	1883.64492
657.253	808.7398
657.537	599.03194
657.822	617.04472
658.107	586.3047
658.391	579.93717
658.676	603.27207
658.961	591.60898
659.245	572.50506
659.53	545.93185
659.814	544.86793
660.099	586.3047
660.383	608.57064
660.668	564.00676
