Data from dark_beginning_ST026791__107__1205.txt Node

Date: Mon Aug 18 22:09:57 AEST 2025
User: mathewyoussef
Spectrometer: ST02679
Trigger mode: 0
Integration Time (sec): 6.653700E-1
Scans to average: 1
Nonlinearity correction enabled: true
Boxcar width: 0
Storing dark spectrum: false
XAxis mode: Wavelengths
Number of Pixels in Spectrum: 1516
>>>>>Begin Spectral Data<<<<<
187.304	549.12314
187.653	546.99569
188.002	562.94414
188.351	562.94414
188.7	544.86793
189.048	566.13178
189.397	596.91145
189.746	579.93717
190.094	559.75581
190.443	560.81866
190.791	541.6757
191.14	552.31374
191.488	566.13178
191.837	588.42663
192.185	583.12126
192.533	566.13178
192.881	552.31374
193.229	552.31374
193.577	593.73018
193.925	592.66961
194.273	580.99861
194.621	583.12126
194.969	562.94414
195.317	551.25029
195.664	580.99861
196.012	553.37712
196.359	525.70404
196.707	553.37712
197.054	564.00676
197.402	564.00676
197.749	573.56701
198.096	591.60898
198.443	584.18248
198.791	555.50366
199.138	570.38093
199.485	573.56701
199.832	542.73986
200.179	552.31374
200.525	555.50366
200.872	551.25029
201.219	573.56701
201.566	588.42663
201.912	574.62889
202.259	572.50506
202.605	583.12126
202.952	599.03194
203.298	589.48748
203.644	572.50506
203.991	565.06931
204.337	559.75581
204.683	565.06931
205.029	574.62889
205.375	569.31875
205.721	573.56701
206.067	585.24363
206.413	572.50506
206.759	571.44303
207.104	562.94414
207.45	559.75581
207.796	586.3047
208.141	593.73018
208.487	565.06931
208.832	548.05945
209.177	553.37712
209.523	564.00676
209.868	571.44303
210.213	595.8511
210.558	592.66961
210.903	565.06931
211.248	550.18675
211.593	537.41832
211.938	535.28916
212.283	587.3657
212.628	621.28009
212.973	586.3047
213.317	558.69289
213.662	566.13178
214.007	564.00676
214.351	565.06931
214.696	568.25651
215.04	559.75581
215.384	578.87566
215.729	569.31875
216.073	567.19418
216.417	571.44303
216.761	570.38093
217.105	566.13178
217.449	570.38093
217.793	587.3657
218.137	587.3657
218.481	609.63015
218.824	621.28009
219.168	612.80824
219.512	561.88144
219.855	528.89979
220.199	578.87566
220.542	578.87566
220.886	578.87566
221.229	584.18248
221.572	567.19418
221.916	577.81408
222.259	594.79068
222.602	583.12126
222.945	567.19418
223.288	586.3047
223.631	562.94414
223.974	521.44192
224.317	524.63863
224.659	533.15969
225.002	550.18675
225.345	553.37712
225.687	556.56681
226.03	578.87566
226.372	586.3047
226.715	588.42663
227.057	573.56701
227.4	551.25029
227.742	560.81866
228.084	593.73018
228.426	578.87566
228.768	590.54827
229.11	576.75242
229.452	561.88144
229.794	567.19418
230.136	540.61148
230.478	556.56681
230.82	611.74894
231.161	612.80824
231.503	608.57064
231.845	596.91145
232.186	590.54827
232.528	604.33193
232.869	571.44303
233.21	595.8511
233.552	607.51107
233.893	580.99861
234.234	574.62889
234.575	583.12126
234.916	583.12126
235.257	593.73018
235.598	602.21215
235.939	558.69289
236.28	586.3047
236.621	594.79068
236.961	570.38093
237.302	601.15215
237.643	577.81408
237.983	551.25029
238.324	557.62989
238.664	586.3047
239.005	588.42663
239.345	586.3047
239.685	605.39171
240.025	594.79068
240.366	576.75242
240.706	594.79068
241.046	578.87566
241.386	548.05945
241.726	569.31875
242.066	576.75242
242.405	554.44043
242.745	559.75581
243.085	583.12126
243.425	577.81408
243.764	602.21215
244.104	643.49793
244.443	624.4559
244.783	582.05997
245.122	575.69069
245.461	578.87566
245.801	550.18675
246.14	555.50366
246.479	590.54827
246.818	590.54827
247.157	604.33193
247.496	601.15215
247.835	571.44303
248.174	562.94414
248.513	573.56701
248.852	632.92172
249.19	639.26825
249.529	567.19418
249.868	567.19418
250.206	578.87566
250.545	569.31875
250.883	569.31875
251.221	533.15969
251.56	536.35378
251.898	567.19418
252.236	559.75581
252.574	574.62889
252.912	600.09208
253.25	575.69069
253.588	564.00676
253.926	569.31875
254.264	579.93717
254.602	602.21215
254.94	595.8511
255.278	571.44303
255.615	573.56701
255.953	579.93717
256.29	580.99861
256.628	574.62889
256.965	569.31875
257.303	577.81408
257.64	592.66961
257.977	587.3657
258.314	546.99569
258.652	541.6757
258.989	562.94414
259.326	558.69289
259.663	583.12126
260	584.18248
260.337	556.56681
260.673	549.12314
261.01	562.94414
261.347	562.94414
261.684	542.73986
262.02	577.81408
262.357	589.48748
262.693	559.75581
263.03	560.81866
263.366	569.31875
263.702	582.05997
264.039	582.05997
264.375	564.00676
264.711	569.31875
265.047	574.62889
265.383	583.12126
265.719	588.42663
266.055	586.3047
266.391	592.66961
266.727	588.42663
267.063	603.27207
267.399	588.42663
267.734	551.25029
268.07	553.37712
268.405	569.31875
268.741	575.69069
269.076	580.99861
269.412	572.50506
269.747	573.56701
270.082	569.31875
270.418	588.42663
270.753	606.45143
271.088	586.3047
271.423	572.50506
271.758	573.56701
272.093	578.87566
272.428	582.05997
272.763	604.33193
273.098	587.3657
273.433	576.75242
273.767	585.24363
274.102	558.69289
274.436	564.00676
274.771	605.39171
275.106	585.24363
275.44	570.38093
275.774	603.27207
276.109	562.94414
276.443	551.25029
276.777	580.99861
277.111	584.18248
277.445	583.12126
277.78	565.06931
278.114	587.3657
278.447	591.60898
278.781	588.42663
279.115	568.25651
279.449	562.94414
279.783	575.69069
280.116	574.62889
280.45	566.13178
280.784	567.19418
281.117	599.03194
281.451	596.91145
281.784	630.80567
282.117	631.86373
282.451	585.24363
282.784	565.06931
283.117	542.73986
283.45	560.81866
283.783	587.3657
284.116	592.66961
284.449	603.27207
284.782	625.51436
285.115	626.57276
285.448	571.44303
285.781	553.37712
286.114	578.87566
286.446	577.81408
286.779	603.27207
287.111	607.51107
287.444	564.00676
287.776	561.88144
288.109	587.3657
288.441	601.15215
288.773	583.12126
289.106	592.66961
289.438	577.81408
289.77	549.12314
290.102	553.37712
290.434	564.00676
290.766	607.51107
291.098	589.48748
291.43	548.05945
291.762	573.56701
292.094	591.60898
292.425	615.9857
292.757	586.3047
293.089	549.12314
293.42	568.25651
293.752	566.13178
294.083	560.81866
294.414	575.69069
294.746	570.38093
295.077	568.25651
295.408	588.42663
295.74	580.99861
296.071	568.25651
296.402	564.00676
296.733	569.31875
297.064	567.19418
297.395	555.50366
297.726	577.81408
298.056	604.33193
298.387	610.68958
298.718	611.74894
299.049	585.24363
299.379	575.69069
299.71	564.00676
300.04	540.61148
300.371	541.6757
300.701	546.99569
301.031	567.19418
301.362	580.99861
301.692	604.33193
302.022	586.3047
302.352	565.06931
302.682	583.12126
303.012	556.56681
303.342	580.99861
303.672	594.79068
304.002	592.66961
304.332	588.42663
304.662	566.13178
304.992	569.31875
305.321	567.19418
305.651	580.99861
305.98	565.06931
306.31	544.86793
306.639	562.94414
306.969	561.88144
307.298	540.61148
307.628	568.25651
307.957	579.93717
308.286	553.37712
308.615	559.75581
308.944	575.69069
309.273	570.38093
309.602	564.00676
309.931	579.93717
310.26	600.09208
310.589	590.54827
310.918	588.42663
311.247	596.91145
311.575	606.45143
311.904	593.73018
312.233	550.18675
312.561	542.73986
312.89	562.94414
313.218	585.24363
313.546	577.81408
313.875	564.00676
314.203	559.75581
314.531	575.69069
314.859	612.80824
315.188	602.21215
315.516	568.25651
315.844	572.50506
316.172	597.97173
316.5	596.91145
316.827	560.81866
317.155	552.31374
317.483	594.79068
317.811	613.86746
318.138	583.12126
318.466	556.56681
318.794	566.13178
319.121	587.3657
319.449	593.73018
319.776	600.09208
320.103	597.97173
320.431	571.44303
320.758	569.31875
321.085	606.45143
321.412	599.03194
321.739	559.75581
322.066	579.93717
322.393	576.75242
322.72	554.44043
323.047	571.44303
323.374	597.97173
323.701	596.91145
324.028	568.25651
324.354	555.50366
324.681	554.44043
325.008	578.87566
325.334	610.68958
325.661	594.79068
325.987	560.81866
326.314	572.50506
326.64	585.24363
326.966	589.48748
327.293	576.75242
327.619	559.75581
327.945	574.62889
328.271	596.91145
328.597	625.51436
328.923	597.97173
329.249	552.31374
329.575	546.99569
329.901	546.99569
330.227	552.31374
330.552	580.99861
330.878	605.39171
331.204	603.27207
331.529	589.48748
331.855	588.42663
332.18	594.79068
332.506	590.54827
332.831	567.19418
333.156	574.62889
333.482	614.92662
333.807	611.74894
334.132	585.24363
334.457	586.3047
334.782	600.09208
335.107	589.48748
335.432	577.81408
335.757	583.12126
336.082	582.05997
336.407	582.05997
336.732	613.86746
337.057	597.97173
337.381	576.75242
337.706	590.54827
338.031	576.75242
338.355	595.8511
338.68	618.10366
339.004	603.27207
339.329	588.42663
339.653	579.93717
339.977	552.31374
340.301	567.19418
340.626	593.73018
340.95	590.54827
341.274	589.48748
341.598	585.24363
341.922	592.66961
342.246	588.42663
342.57	560.81866
342.894	567.19418
343.218	595.8511
343.541	591.60898
343.865	559.75581
344.189	555.50366
344.512	599.03194
344.836	577.81408
345.159	545.93185
345.483	579.93717
345.806	559.75581
346.13	572.50506
346.453	603.27207
346.776	576.75242
347.099	593.73018
347.423	584.18248
347.746	579.93717
348.069	606.45143
348.392	600.09208
348.715	591.60898
349.038	579.93717
349.361	574.62889
349.683	599.03194
350.006	601.15215
350.329	587.3657
350.652	582.05997
350.974	574.62889
351.297	579.93717
351.619	571.44303
351.942	570.38093
352.264	585.24363
352.587	590.54827
352.909	575.69069
353.231	543.80393
353.554	549.12314
353.876	560.81866
354.198	557.62989
354.52	573.56701
354.842	588.42663
355.164	591.60898
355.486	602.21215
355.808	594.79068
356.13	573.56701
356.452	604.33193
356.773	607.51107
357.095	566.13178
357.417	569.31875
357.738	574.62889
358.06	558.69289
358.381	584.18248
358.703	605.39171
359.024	600.09208
359.346	595.8511
359.667	585.24363
359.988	567.19418
360.309	557.62989
360.631	558.69289
360.952	568.25651
361.273	593.73018
361.594	597.97173
361.915	575.69069
362.236	573.56701
362.557	591.60898
362.878	580.99861
363.198	567.19418
363.519	554.44043
363.84	561.88144
364.16	589.48748
364.481	578.87566
364.802	557.62989
365.122	570.38093
365.443	614.92662
365.763	597.97173
366.083	560.81866
366.404	558.69289
366.724	566.13178
367.044	578.87566
367.364	599.03194
367.685	600.09208
368.005	579.93717
368.325	568.25651
368.645	565.06931
368.965	561.88144
369.284	556.56681
369.604	557.62989
369.924	593.73018
370.244	602.21215
370.564	589.48748
370.883	578.87566
371.203	561.88144
371.522	588.42663
371.842	609.63015
372.161	599.03194
372.481	585.24363
372.8	594.79068
373.119	597.97173
373.439	592.66961
373.758	582.05997
374.077	566.13178
374.396	561.88144
374.715	560.81866
375.034	558.69289
375.353	605.39171
375.672	588.42663
375.991	557.62989
376.31	564.00676
376.629	552.31374
376.948	554.44043
377.266	569.31875
377.585	604.33193
377.904	612.80824
378.222	594.79068
378.541	585.24363
378.859	576.75242
379.178	569.31875
379.496	584.18248
379.814	585.24363
380.133	562.94414
380.451	558.69289
380.769	584.18248
381.087	583.12126
381.405	552.31374
381.723	568.25651
382.041	559.75581
382.359	554.44043
382.677	574.62889
382.995	596.91145
383.313	594.79068
383.631	574.62889
383.949	588.42663
384.266	573.56701
384.584	568.25651
384.901	585.24363
385.219	579.93717
385.537	580.99861
385.854	574.62889
386.171	565.06931
386.489	567.19418
386.806	587.3657
387.123	597.97173
387.441	609.63015
387.758	637.15301
388.075	574.62889
388.392	538.48278
388.709	561.88144
389.026	572.50506
389.343	566.13178
389.66	569.31875
389.977	593.73018
390.294	571.44303
390.61	553.37712
390.927	579.93717
391.244	617.04472
391.56	588.42663
391.877	537.41832
392.193	555.50366
392.51	584.18248
392.826	597.97173
393.143	582.05997
393.459	571.44303
393.775	572.50506
394.092	543.80393
394.408	565.06931
394.724	569.31875
395.04	558.69289
395.356	590.54827
395.672	595.8511
395.988	591.60898
396.304	574.62889
396.62	560.81866
396.936	580.99861
397.252	573.56701
397.567	568.25651
397.883	577.81408
398.199	582.05997
398.514	578.87566
398.83	559.75581
399.146	567.19418
399.461	585.24363
399.777	590.54827
400.092	587.3657
400.407	579.93717
400.723	578.87566
401.038	551.25029
401.353	578.87566
401.668	632.92172
401.983	600.09208
402.298	565.06931
402.613	596.91145
402.928	597.97173
403.243	548.05945
403.558	538.48278
403.873	564.00676
404.188	579.93717
404.503	567.19418
404.817	555.50366
405.132	554.44043
405.447	572.50506
405.761	580.99861
406.076	589.48748
406.39	561.88144
406.705	556.56681
407.019	604.33193
407.334	603.27207
407.648	602.21215
407.962	569.31875
408.276	556.56681
408.591	575.69069
408.905	561.88144
409.219	576.75242
409.533	568.25651
409.847	578.87566
410.161	599.03194
410.475	580.99861
410.789	576.75242
411.102	604.33193
411.416	608.57064
411.73	577.81408
412.044	582.05997
412.357	593.73018
412.671	558.69289
412.984	564.00676
413.298	625.51436
413.611	629.74755
413.925	611.74894
414.238	597.97173
414.552	552.31374
414.865	537.41832
415.178	582.05997
415.491	577.81408
415.804	614.92662
416.118	617.04472
416.431	552.31374
416.744	553.37712
417.057	570.38093
417.37	579.93717
417.683	562.94414
417.995	596.91145
418.308	584.18248
418.621	554.44043
418.934	560.81866
419.246	552.31374
419.559	586.3047
419.872	579.93717
420.184	550.18675
420.497	564.00676
420.809	611.74894
421.121	606.45143
421.434	601.15215
421.746	593.73018
422.058	565.06931
422.371	573.56701
422.683	564.00676
422.995	546.99569
423.307	540.61148
423.619	574.62889
423.931	571.44303
424.243	544.86793
424.555	553.37712
424.867	589.48748
425.179	619.16254
425.491	593.73018
425.802	584.18248
426.114	582.05997
426.426	554.44043
426.737	548.05945
427.049	573.56701
427.361	583.12126
427.672	586.3047
427.984	591.60898
428.295	572.50506
428.606	549.12314
428.918	566.13178
429.229	619.16254
429.54	586.3047
429.851	538.48278
430.163	582.05997
430.474	591.60898
430.785	570.38093
431.096	558.69289
431.407	579.93717
431.718	594.79068
432.029	586.3047
432.339	594.79068
432.65	596.91145
432.961	573.56701
433.272	538.48278
433.582	559.75581
433.893	570.38093
434.204	520.37619
434.514	533.15969
434.825	577.81408
435.135	582.05997
435.446	595.8511
435.756	591.60898
436.066	571.44303
436.377	604.33193
436.687	599.03194
436.997	567.19418
437.307	574.62889
437.617	586.3047
437.927	560.81866
438.237	540.61148
438.547	535.28916
438.857	538.48278
439.167	570.38093
439.477	585.24363
439.787	585.24363
440.097	567.19418
440.407	569.31875
440.716	594.79068
441.026	590.54827
441.336	578.87566
441.645	602.21215
441.955	590.54827
442.264	572.50506
442.574	601.15215
442.883	621.28009
443.192	620.22135
443.502	605.39171
443.811	587.3657
444.12	578.87566
444.429	582.05997
444.739	587.3657
445.048	602.21215
445.357	607.51107
445.666	589.48748
445.975	571.44303
446.284	551.25029
446.593	562.94414
446.901	578.87566
447.21	580.99861
447.519	597.97173
447.828	592.66961
448.136	600.09208
448.445	586.3047
448.754	539.54717
449.062	551.25029
449.371	562.94414
449.679	571.44303
449.988	584.18248
450.296	569.31875
450.605	572.50506
450.913	589.48748
451.221	625.51436
451.529	624.4559
451.838	578.87566
452.146	583.12126
452.454	593.73018
452.762	613.86746
453.07	583.12126
453.378	537.41832
453.686	572.50506
453.994	632.92172
454.302	635.0375
454.609	580.99861
454.917	561.88144
455.225	573.56701
455.533	573.56701
455.84	583.12126
456.148	585.24363
456.455	568.25651
456.763	565.06931
457.07	585.24363
457.378	595.8511
457.685	583.12126
457.993	564.00676
458.3	551.25029
458.607	572.50506
458.915	596.91145
459.222	592.66961
459.529	575.69069
459.836	586.3047
460.143	591.60898
460.45	591.60898
460.757	589.48748
461.064	575.69069
461.371	582.05997
461.678	618.10366
461.985	574.62889
462.292	536.35378
462.598	578.87566
462.905	580.99861
463.212	568.25651
463.518	582.05997
463.825	566.13178
464.131	574.62889
464.438	600.09208
464.744	588.42663
465.051	574.62889
465.357	572.50506
465.664	568.25651
465.97	572.50506
466.276	594.79068
466.582	589.48748
466.889	556.56681
467.195	553.37712
467.501	565.06931
467.807	565.06931
468.113	574.62889
468.419	588.42663
468.725	578.87566
469.031	558.69289
469.337	583.12126
469.642	588.42663
469.948	562.94414
470.254	584.18248
470.56	587.3657
470.865	579.93717
471.171	573.56701
471.477	556.56681
471.782	554.44043
472.088	568.25651
472.393	587.3657
472.698	577.81408
473.004	566.13178
473.309	578.87566
473.614	592.66961
473.92	572.50506
474.225	555.50366
474.53	572.50506
474.835	583.12126
475.14	590.54827
475.445	586.3047
475.75	576.75242
476.055	599.03194
476.36	596.91145
476.665	576.75242
476.97	575.69069
477.275	591.60898
477.58	593.73018
477.885	580.99861
478.189	580.99861
478.494	576.75242
478.799	559.75581
479.103	540.61148
479.408	552.31374
479.712	586.3047
480.017	577.81408
480.321	546.99569
480.625	546.99569
480.93	578.87566
481.234	582.05997
481.538	578.87566
481.843	570.38093
482.147	571.44303
482.451	546.99569
482.755	539.54717
483.059	557.62989
483.363	568.25651
483.667	566.13178
483.971	577.81408
484.275	593.73018
484.579	588.42663
484.883	577.81408
485.187	559.75581
485.49	602.21215
485.794	591.60898
486.098	556.56681
486.401	556.56681
486.705	535.28916
487.009	559.75581
487.312	599.03194
487.616	580.99861
487.919	548.05945
488.222	583.12126
488.526	610.68958
488.829	587.3657
489.132	590.54827
489.436	589.48748
489.739	585.24363
490.042	593.73018
490.345	610.68958
490.648	591.60898
490.951	577.81408
491.254	582.05997
491.557	578.87566
491.86	569.31875
492.163	570.38093
492.466	592.66961
492.769	594.79068
493.072	589.48748
493.375	561.88144
493.677	558.69289
493.98	590.54827
494.283	586.3047
494.585	574.62889
494.888	587.3657
495.19	580.99861
495.493	569.31875
495.795	572.50506
496.098	586.3047
496.4	589.48748
496.702	591.60898
497.005	583.12126
497.307	574.62889
497.609	571.44303
497.911	577.81408
498.213	569.31875
498.515	579.93717
498.818	615.9857
499.12	617.04472
499.422	597.97173
499.723	593.73018
500.025	597.97173
500.327	556.56681
500.629	558.69289
500.931	582.05997
501.233	569.31875
501.534	572.50506
501.836	584.18248
502.138	595.8511
502.439	571.44303
502.741	558.69289
503.042	578.87566
503.344	574.62889
503.645	586.3047
503.947	569.31875
504.248	543.80393
504.55	554.44043
504.851	568.25651
505.152	585.24363
505.453	584.18248
505.755	599.03194
506.056	597.97173
506.357	576.75242
506.658	597.97173
506.959	609.63015
507.26	612.80824
507.561	589.48748
507.862	543.80393
508.163	566.13178
508.464	582.05997
508.764	566.13178
509.065	549.12314
509.366	568.25651
509.667	592.66961
509.967	575.69069
510.268	562.94414
510.569	568.25651
510.869	556.56681
511.17	550.18675
511.47	586.3047
511.771	603.27207
512.071	607.51107
512.371	587.3657
512.672	552.31374
512.972	549.12314
513.272	571.44303
513.573	582.05997
513.873	586.3047
514.173	579.93717
514.473	560.81866
514.773	568.25651
515.073	577.81408
515.373	583.12126
515.673	586.3047
515.973	579.93717
516.273	575.69069
516.573	570.38093
516.873	568.25651
517.172	582.05997
517.472	577.81408
517.772	561.88144
518.072	551.25029
518.371	575.69069
518.671	600.09208
518.97	554.44043
519.27	541.6757
519.569	590.54827
519.869	592.66961
520.168	559.75581
520.468	557.62989
520.767	568.25651
521.066	566.13178
521.366	580.99861
521.665	584.18248
521.964	571.44303
522.263	576.75242
522.562	555.50366
522.861	543.80393
523.161	539.54717
523.46	543.80393
523.759	587.3657
524.057	608.57064
524.356	586.3047
524.655	579.93717
524.954	580.99861
525.253	595.8511
525.552	599.03194
525.85	571.44303
526.149	572.50506
526.448	579.93717
526.746	565.06931
527.045	573.56701
527.344	585.24363
527.642	575.69069
527.941	590.54827
528.239	578.87566
528.537	550.18675
528.836	578.87566
529.134	621.28009
529.432	599.03194
529.731	586.3047
530.029	594.79068
530.327	570.38093
530.625	549.12314
530.923	566.13178
531.221	584.18248
531.52	611.74894
531.818	613.86746
532.116	570.38093
532.413	573.56701
532.711	584.18248
533.009	573.56701
533.307	560.81866
533.605	557.62989
533.903	557.62989
534.2	546.99569
534.498	565.06931
534.796	578.87566
535.093	570.38093
535.391	571.44303
535.689	555.50366
535.986	553.37712
536.284	583.12126
536.581	586.3047
536.878	590.54827
537.176	609.63015
537.473	593.73018
537.77	560.81866
538.068	570.38093
538.365	596.91145
538.662	591.60898
538.959	595.8511
539.256	588.42663
539.554	576.75242
539.851	578.87566
540.148	589.48748
540.445	565.06931
540.742	545.93185
541.039	579.93717
541.335	572.50506
541.632	592.66961
541.929	625.51436
542.226	602.21215
542.523	577.81408
542.819	553.37712
543.116	571.44303
543.413	594.79068
543.709	555.50366
544.006	539.54717
544.302	582.05997
544.599	585.24363
544.895	551.25029
545.192	555.50366
545.488	602.21215
545.785	605.39171
546.081	587.3657
546.377	603.27207
546.673	607.51107
546.97	596.91145
547.266	568.25651
547.562	582.05997
547.858	591.60898
548.154	572.50506
548.45	574.62889
548.746	577.81408
549.042	585.24363
549.338	570.38093
549.634	564.00676
549.93	564.00676
550.226	539.54717
550.522	544.86793
550.818	570.38093
551.113	579.93717
551.409	579.93717
551.705	559.75581
552	548.05945
552.296	543.80393
552.592	546.99569
552.887	556.56681
553.183	582.05997
553.478	603.27207
553.774	568.25651
554.069	574.62889
554.364	574.62889
554.66	542.73986
554.955	557.62989
555.25	591.60898
555.546	579.93717
555.841	554.44043
556.136	580.99861
556.431	585.24363
556.726	560.81866
557.021	550.18675
557.316	561.88144
557.611	587.3657
557.906	572.50506
558.201	564.00676
558.496	588.42663
558.791	573.56701
559.086	552.31374
559.381	572.50506
559.675	612.80824
559.97	635.0375
560.265	630.80567
560.56	604.33193
560.854	576.75242
561.149	557.62989
561.443	572.50506
561.738	574.62889
562.032	561.88144
562.327	566.13178
562.621	561.88144
562.916	576.75242
563.21	588.42663
563.504	575.69069
563.799	553.37712
564.093	561.88144
564.387	583.12126
564.681	590.54827
564.976	574.62889
565.27	568.25651
565.564	583.12126
565.858	564.00676
566.152	541.6757
566.446	571.44303
566.74	586.3047
567.034	569.31875
567.328	564.00676
567.622	597.97173
567.916	612.80824
568.209	580.99861
568.503	576.75242
568.797	579.93717
569.091	561.88144
569.384	576.75242
569.678	577.81408
569.972	576.75242
570.265	561.88144
570.559	511.84745
570.852	532.09483
571.146	558.69289
571.439	559.75581
571.733	570.38093
572.026	569.31875
572.319	570.38093
572.613	592.66961
572.906	576.75242
573.199	576.75242
573.492	602.21215
573.786	575.69069
574.079	595.8511
574.372	607.51107
574.665	586.3047
574.958	584.18248
575.251	582.05997
575.544	597.97173
575.837	595.8511
576.13	593.73018
576.423	597.97173
576.716	584.18248
577.009	566.13178
577.301	573.56701
577.594	596.91145
577.887	609.63015
578.18	595.8511
578.472	593.73018
578.765	622.33876
579.057	631.86373
579.35	597.97173
579.643	564.00676
579.935	552.31374
580.228	558.69289
580.52	576.75242
580.813	568.25651
581.105	585.24363
581.397	576.75242
581.69	575.69069
581.982	583.12126
582.274	597.97173
582.566	621.28009
582.859	588.42663
583.151	575.69069
583.443	587.3657
583.735	611.74894
584.027	607.51107
584.319	568.25651
584.611	573.56701
584.903	579.93717
585.195	549.12314
585.487	538.48278
585.779	554.44043
586.071	588.42663
586.363	594.79068
586.654	558.69289
586.946	545.93185
587.238	531.0299
587.529	520.37619
587.821	546.99569
588.113	582.05997
588.404	594.79068
588.696	545.93185
588.987	560.81866
589.279	611.74894
589.57	565.06931
589.862	564.00676
590.153	572.50506
590.445	552.31374
590.736	565.06931
591.027	574.62889
591.319	591.60898
591.61	604.33193
591.901	601.15215
592.192	583.12126
592.484	589.48748
592.775	607.51107
593.066	606.45143
593.357	632.92172
593.648	621.28009
593.939	588.42663
594.23	605.39171
594.521	594.79068
594.812	570.38093
595.103	583.12126
595.393	583.12126
595.684	571.44303
595.975	593.73018
596.266	600.09208
596.557	580.99861
596.847	576.75242
597.138	564.00676
597.429	555.50366
597.719	564.00676
598.01	552.31374
598.3	546.99569
598.591	583.12126
598.881	607.51107
599.172	614.92662
599.462	582.05997
599.753	570.38093
600.043	582.05997
600.333	567.19418
600.624	561.88144
600.914	550.18675
601.204	569.31875
601.494	577.81408
601.785	559.75581
602.075	545.93185
602.365	526.76937
602.655	553.37712
602.945	593.73018
603.235	575.69069
603.525	574.62889
603.815	579.93717
604.105	588.42663
604.395	592.66961
604.685	582.05997
604.975	584.18248
605.265	568.25651
605.554	557.62989
605.844	562.94414
606.134	571.44303
606.424	587.3657
606.713	571.44303
607.003	541.6757
607.293	558.69289
607.582	562.94414
607.872	550.18675
608.161	573.56701
608.451	589.48748
608.74	576.75242
609.03	558.69289
609.319	553.37712
609.608	586.3047
609.898	570.38093
610.187	565.06931
610.476	555.50366
610.766	533.15969
611.055	545.93185
611.344	554.44043
611.633	559.75581
611.922	567.19418
612.211	569.31875
612.501	580.99861
612.79	588.42663
613.079	556.56681
613.368	580.99861
613.657	608.57064
613.946	591.60898
614.234	575.69069
614.523	591.60898
614.812	597.97173
615.101	567.19418
615.39	573.56701
615.679	569.31875
615.967	553.37712
616.256	572.50506
616.545	587.3657
616.833	568.25651
617.122	546.99569
617.411	577.81408
617.699	573.56701
617.988	555.50366
618.276	589.48748
618.565	576.75242
618.853	541.6757
619.141	565.06931
619.43	577.81408
619.718	605.39171
620.007	593.73018
620.295	548.05945
620.583	554.44043
620.871	590.54827
621.16	602.21215
621.448	560.81866
621.736	566.13178
622.024	604.33193
622.312	603.27207
622.6	571.44303
622.888	550.18675
623.176	568.25651
623.464	564.00676
623.752	607.51107
624.04	625.51436
624.328	570.38093
624.616	574.62889
624.904	576.75242
625.192	565.06931
625.479	580.99861
625.767	575.69069
626.055	562.94414
626.343	567.19418
626.63	561.88144
626.918	583.12126
627.206	585.24363
627.493	562.94414
627.781	554.44043
628.068	562.94414
628.356	561.88144
628.643	568.25651
628.931	585.24363
629.218	574.62889
629.505	554.44043
629.793	578.87566
630.08	593.73018
630.367	566.13178
630.655	550.18675
630.942	542.73986
631.229	573.56701
631.516	595.8511
631.804	579.93717
632.091	575.69069
632.378	582.05997
632.665	592.66961
632.952	599.03194
633.239	586.3047
633.526	597.97173
633.813	584.18248
634.1	574.62889
634.387	571.44303
634.674	548.05945
634.961	543.80393
635.247	588.42663
635.534	583.12126
635.821	544.86793
636.108	564.00676
636.394	579.93717
636.681	574.62889
636.968	568.25651
637.255	568.25651
637.541	567.19418
637.828	556.56681
638.114	535.28916
638.401	560.81866
638.687	555.50366
638.974	541.6757
639.26	588.42663
639.547	613.86746
639.833	607.51107
640.119	602.21215
640.406	569.31875
640.692	546.99569
640.978	587.3657
641.265	626.57276
641.551	604.33193
641.837	569.31875
642.123	546.99569
642.409	572.50506
642.696	593.73018
642.982	566.13178
643.268	561.88144
643.554	571.44303
643.84	610.68958
644.126	587.3657
644.412	593.73018
644.698	603.27207
644.984	583.12126
645.269	578.87566
645.555	570.38093
645.841	590.54827
646.127	574.62889
646.413	568.25651
646.698	559.75581
646.984	546.99569
647.27	537.41832
647.556	582.05997
647.841	606.45143
648.127	562.94414
648.412	566.13178
648.698	594.79068
648.984	578.87566
649.269	587.3657
649.554	594.79068
649.84	565.06931
650.125	575.69069
650.411	576.75242
650.696	552.31374
650.982	556.56681
651.267	570.38093
651.552	565.06931
651.837	562.94414
652.123	561.88144
652.408	566.13178
652.693	556.56681
652.978	573.56701
653.263	577.81408
653.549	566.13178
653.834	583.12126
654.119	558.69289
654.404	559.75581
654.689	572.50506
654.974	561.88144
655.259	586.3047
655.544	603.27207
655.828	584.18248
656.113	578.87566
656.398	582.05997
656.683	593.73018
656.968	597.97173
657.253	594.79068
657.537	618.10366
657.822	624.4559
658.107	579.93717
658.391	552.31374
658.676	569.31875
658.961	572.50506
659.245	562.94414
659.53	557.62989
659.814	559.75581
660.099	578.87566
660.383	579.93717
660.668	551.25029
