Data from dark_beginning_ST026791__188__1286.txt Node

Date: Mon Aug 18 22:11:47 AEST 2025
User: mathewyoussef
Spectrometer: ST02679
Trigger mode: 0
Integration Time (sec): 6.653700E-1
Scans to average: 1
Nonlinearity correction enabled: true
Boxcar width: 0
Storing dark spectrum: false
XAxis mode: Wavelengths
Number of Pixels in Spectrum: 1516
>>>>>Begin Spectral Data<<<<<
187.304	591.60898
187.653	586.3047
188.002	572.50506
188.351	567.19418
188.7	585.24363
189.048	591.60898
189.397	596.91145
189.746	603.27207
190.094	578.87566
190.443	545.93185
190.791	539.54717
191.14	537.41832
191.488	545.93185
191.837	587.3657
192.185	579.93717
192.533	552.31374
192.881	560.81866
193.229	578.87566
193.577	590.54827
193.925	570.38093
194.273	538.48278
194.621	546.99569
194.969	541.6757
195.317	525.70404
195.664	552.31374
196.012	550.18675
196.359	572.50506
196.707	621.28009
197.054	585.24363
197.402	536.35378
197.749	529.96488
198.096	548.05945
198.443	567.19418
198.791	558.69289
199.138	541.6757
199.485	552.31374
199.832	566.13178
200.179	558.69289
200.525	546.99569
200.872	583.12126
201.219	575.69069
201.566	541.6757
201.912	555.50366
202.259	576.75242
202.605	570.38093
202.952	569.31875
203.298	580.99861
203.644	569.31875
203.991	565.06931
204.337	557.62989
204.683	553.37712
205.029	557.62989
205.375	551.25029
205.721	576.75242
206.067	590.54827
206.413	589.48748
206.759	612.80824
207.104	576.75242
207.45	566.13178
207.796	588.42663
208.141	572.50506
208.487	571.44303
208.832	570.38093
209.177	540.61148
209.523	552.31374
209.868	579.93717
210.213	583.12126
210.558	573.56701
210.903	577.81408
211.248	587.3657
211.593	569.31875
211.938	584.18248
212.283	628.68935
212.628	580.99861
212.973	529.96488
213.317	535.28916
213.662	546.99569
214.007	572.50506
214.351	568.25651
214.696	553.37712
215.04	560.81866
215.384	596.91145
215.729	601.15215
216.073	578.87566
216.417	582.05997
216.761	591.60898
217.105	589.48748
217.449	590.54827
217.793	574.62889
218.137	568.25651
218.481	589.48748
218.824	594.79068
219.168	589.48748
219.512	566.13178
219.855	573.56701
220.199	588.42663
220.542	568.25651
220.886	585.24363
221.229	605.39171
221.572	580.99861
221.916	573.56701
222.259	595.8511
222.602	576.75242
222.945	551.25029
223.288	544.86793
223.631	551.25029
223.974	548.05945
224.317	526.76937
224.659	553.37712
225.002	609.63015
225.345	600.09208
225.687	569.31875
226.03	588.42663
226.372	572.50506
226.715	571.44303
227.057	593.73018
227.4	575.69069
227.742	554.44043
228.084	569.31875
228.426	580.99861
228.768	584.18248
229.11	576.75242
229.452	548.05945
229.794	555.50366
230.136	572.50506
230.478	580.99861
230.82	593.73018
231.161	586.3047
231.503	608.57064
231.845	596.91145
232.186	608.57064
232.528	636.09528
232.869	599.03194
233.21	600.09208
233.552	585.24363
233.893	571.44303
234.234	568.25651
234.575	552.31374
234.916	551.25029
235.257	549.12314
235.598	579.93717
235.939	619.16254
236.28	591.60898
236.621	549.12314
236.961	572.50506
237.302	584.18248
237.643	572.50506
237.983	559.75581
238.324	548.05945
238.664	599.03194
239.005	612.80824
239.345	566.13178
239.685	573.56701
240.025	573.56701
240.366	584.18248
240.706	600.09208
241.046	593.73018
241.386	583.12126
241.726	566.13178
242.066	566.13178
242.405	564.00676
242.745	593.73018
243.085	594.79068
243.425	566.13178
243.764	566.13178
244.104	608.57064
244.443	619.16254
244.783	612.80824
245.122	602.21215
245.461	596.91145
245.801	621.28009
246.14	620.22135
246.479	620.22135
246.818	594.79068
247.157	578.87566
247.496	586.3047
247.835	567.19418
248.174	580.99861
248.513	601.15215
248.852	606.45143
249.19	588.42663
249.529	577.81408
249.868	603.27207
250.206	587.3657
250.545	578.87566
250.883	590.54827
251.221	585.24363
251.56	578.87566
251.898	586.3047
252.236	580.99861
252.574	579.93717
252.912	595.8511
253.25	586.3047
253.588	576.75242
253.926	574.62889
254.264	571.44303
254.602	588.42663
254.94	582.05997
255.278	585.24363
255.615	586.3047
255.953	583.12126
256.29	577.81408
256.628	557.62989
256.965	573.56701
257.303	597.97173
257.64	620.22135
257.977	594.79068
258.314	580.99861
258.652	604.33193
258.989	594.79068
259.326	582.05997
259.663	597.97173
260	584.18248
260.337	550.18675
260.673	556.56681
261.01	536.35378
261.347	521.44192
261.684	548.05945
262.02	595.8511
262.357	604.33193
262.693	553.37712
263.03	543.80393
263.366	568.25651
263.702	585.24363
264.039	612.80824
264.375	595.8511
264.711	567.19418
265.047	583.12126
265.383	574.62889
265.719	572.50506
266.055	615.9857
266.391	610.68958
266.727	604.33193
267.063	612.80824
267.399	585.24363
267.734	596.91145
268.07	623.39736
268.405	610.68958
268.741	579.93717
269.076	540.61148
269.412	545.93185
269.747	576.75242
270.082	574.62889
270.418	566.13178
270.753	559.75581
271.088	549.12314
271.423	552.31374
271.758	591.60898
272.093	629.74755
272.428	603.27207
272.763	595.8511
273.098	615.9857
273.433	606.45143
273.767	605.39171
274.102	582.05997
274.436	550.18675
274.771	550.18675
275.106	567.19418
275.44	595.8511
275.774	589.48748
276.109	560.81866
276.443	578.87566
276.777	605.39171
277.111	597.97173
277.445	584.18248
277.78	592.66961
278.114	631.86373
278.447	614.92662
278.781	580.99861
279.115	569.31875
279.449	549.12314
279.783	565.06931
280.116	603.27207
280.45	613.86746
280.784	595.8511
281.117	592.66961
281.451	578.87566
281.784	586.3047
282.117	593.73018
282.451	590.54827
282.784	588.42663
283.117	586.3047
283.45	588.42663
283.783	566.13178
284.116	571.44303
284.449	595.8511
284.782	615.9857
285.115	612.80824
285.448	595.8511
285.781	578.87566
286.114	566.13178
286.446	577.81408
286.779	612.80824
287.111	593.73018
287.444	560.81866
287.776	584.18248
288.109	584.18248
288.441	559.75581
288.773	569.31875
289.106	612.80824
289.438	622.33876
289.77	594.79068
290.102	569.31875
290.434	571.44303
290.766	595.8511
291.098	595.8511
291.43	591.60898
291.762	608.57064
292.094	582.05997
292.425	546.99569
292.757	553.37712
293.089	584.18248
293.42	589.48748
293.752	567.19418
294.083	570.38093
294.414	564.00676
294.746	559.75581
295.077	554.44043
295.408	573.56701
295.74	604.33193
296.071	592.66961
296.402	578.87566
296.733	567.19418
297.064	561.88144
297.395	567.19418
297.726	582.05997
298.056	605.39171
298.387	601.15215
298.718	605.39171
299.049	610.68958
299.379	575.69069
299.71	572.50506
300.04	590.54827
300.371	580.99861
300.701	567.19418
301.031	600.09208
301.362	603.27207
301.692	604.33193
302.022	615.9857
302.352	594.79068
302.682	588.42663
303.012	585.24363
303.342	554.44043
303.672	531.0299
304.002	567.19418
304.332	568.25651
304.662	552.31374
304.992	561.88144
305.321	571.44303
305.651	570.38093
305.98	567.19418
306.31	539.54717
306.639	555.50366
306.969	582.05997
307.298	570.38093
307.628	571.44303
307.957	573.56701
308.286	575.69069
308.615	567.19418
308.944	590.54827
309.273	585.24363
309.602	553.37712
309.931	599.03194
310.26	619.16254
310.589	573.56701
310.918	569.31875
311.247	576.75242
311.575	545.93185
311.904	555.50366
312.233	580.99861
312.561	570.38093
312.89	573.56701
313.218	609.63015
313.546	615.9857
313.875	574.62889
314.203	572.50506
314.531	587.3657
314.859	578.87566
315.188	578.87566
315.516	577.81408
315.844	574.62889
316.172	604.33193
316.5	607.51107
316.827	590.54827
317.155	584.18248
317.483	596.91145
317.811	604.33193
318.138	562.94414
318.466	554.44043
318.794	566.13178
319.121	574.62889
319.449	605.39171
319.776	597.97173
320.103	558.69289
320.431	580.99861
320.758	570.38093
321.085	525.70404
321.412	561.88144
321.739	583.12126
322.066	564.00676
322.393	562.94414
322.72	562.94414
323.047	561.88144
323.374	596.91145
323.701	591.60898
324.028	569.31875
324.354	564.00676
324.681	557.62989
325.008	587.3657
325.334	605.39171
325.661	610.68958
325.987	620.22135
326.314	615.9857
326.64	591.60898
326.966	584.18248
327.293	588.42663
327.619	572.50506
327.945	568.25651
328.271	576.75242
328.597	585.24363
328.923	560.81866
329.249	528.89979
329.575	541.6757
329.901	562.94414
330.227	597.97173
330.552	606.45143
330.878	566.13178
331.204	585.24363
331.529	597.97173
331.855	566.13178
332.18	570.38093
332.506	589.48748
332.831	594.79068
333.156	605.39171
333.482	597.97173
333.807	579.93717
334.132	568.25651
334.457	567.19418
334.782	569.31875
335.107	560.81866
335.432	571.44303
335.757	585.24363
336.082	558.69289
336.407	527.83462
336.732	554.44043
337.057	574.62889
337.381	577.81408
337.706	566.13178
338.031	559.75581
338.355	572.50506
338.68	573.56701
339.004	570.38093
339.329	588.42663
339.653	580.99861
339.977	550.18675
340.301	560.81866
340.626	559.75581
340.95	557.62989
341.274	580.99861
341.598	567.19418
341.922	561.88144
342.246	578.87566
342.57	576.75242
342.894	583.12126
343.218	595.8511
343.541	571.44303
343.865	545.93185
344.189	555.50366
344.512	566.13178
344.836	583.12126
345.159	585.24363
345.483	578.87566
345.806	574.62889
346.13	579.93717
346.453	578.87566
346.776	569.31875
347.099	584.18248
347.423	575.69069
347.746	572.50506
348.069	601.15215
348.392	585.24363
348.715	561.88144
349.038	573.56701
349.361	580.99861
349.683	562.94414
350.006	564.00676
350.329	560.81866
350.652	593.73018
350.974	606.45143
351.297	568.25651
351.619	586.3047
351.942	582.05997
352.264	558.69289
352.587	584.18248
352.909	583.12126
353.231	558.69289
353.554	556.56681
353.876	559.75581
354.198	590.54827
354.52	600.09208
354.842	591.60898
355.164	587.3657
355.486	592.66961
355.808	591.60898
356.13	582.05997
356.452	617.04472
356.773	605.39171
357.095	561.88144
357.417	548.05945
357.738	565.06931
358.06	589.48748
358.381	580.99861
358.703	554.44043
359.024	546.99569
359.346	568.25651
359.667	585.24363
359.988	575.69069
360.309	561.88144
360.631	584.18248
360.952	595.8511
361.273	579.93717
361.594	584.18248
361.915	600.09208
362.236	579.93717
362.557	568.25651
362.878	568.25651
363.198	582.05997
363.519	566.13178
363.84	576.75242
364.16	588.42663
364.481	590.54827
364.802	580.99861
365.122	561.88144
365.443	572.50506
365.763	569.31875
366.083	594.79068
366.404	587.3657
366.724	594.79068
367.044	611.74894
367.364	580.99861
367.685	571.44303
368.005	583.12126
368.325	582.05997
368.645	569.31875
368.965	555.50366
369.284	565.06931
369.604	558.69289
369.924	565.06931
370.244	612.80824
370.564	592.66961
370.883	557.62989
371.203	577.81408
371.522	599.03194
371.842	636.09528
372.161	605.39171
372.481	588.42663
372.8	612.80824
373.119	612.80824
373.439	601.15215
373.758	569.31875
374.077	578.87566
374.396	585.24363
374.715	573.56701
375.034	554.44043
375.353	553.37712
375.672	540.61148
375.991	553.37712
376.31	589.48748
376.629	568.25651
376.948	577.81408
377.266	593.73018
377.585	603.27207
377.904	621.28009
378.222	586.3047
378.541	564.00676
378.859	572.50506
379.178	569.31875
379.496	580.99861
379.814	579.93717
380.133	544.86793
380.451	540.61148
380.769	552.31374
381.087	557.62989
381.405	570.38093
381.723	589.48748
382.041	600.09208
382.359	589.48748
382.677	577.81408
382.995	572.50506
383.313	573.56701
383.631	579.93717
383.949	564.00676
384.266	573.56701
384.584	596.91145
384.901	562.94414
385.219	566.13178
385.537	586.3047
385.854	592.66961
386.171	565.06931
386.489	539.54717
386.806	551.25029
387.123	589.48748
387.441	593.73018
387.758	593.73018
388.075	597.97173
388.392	541.6757
388.709	532.09483
389.026	560.81866
389.343	553.37712
389.66	552.31374
389.977	562.94414
390.294	545.93185
390.61	576.75242
390.927	618.10366
391.244	605.39171
391.56	589.48748
391.877	567.19418
392.193	564.00676
392.51	576.75242
392.826	558.69289
393.143	568.25651
393.459	566.13178
393.775	536.35378
394.092	552.31374
394.408	561.88144
394.724	549.12314
395.04	571.44303
395.356	590.54827
395.672	583.12126
395.988	588.42663
396.304	596.91145
396.62	577.81408
396.936	575.69069
397.252	589.48748
397.567	574.62889
397.883	562.94414
398.199	561.88144
398.514	538.48278
398.83	558.69289
399.146	593.73018
399.461	591.60898
399.777	603.27207
400.092	608.57064
400.407	592.66961
400.723	561.88144
401.038	537.41832
401.353	554.44043
401.668	584.18248
401.983	575.69069
402.298	552.31374
402.613	565.06931
402.928	578.87566
403.243	560.81866
403.558	550.18675
403.873	541.6757
404.188	573.56701
404.503	618.10366
404.817	592.66961
405.132	565.06931
405.447	556.56681
405.761	591.60898
406.076	597.97173
406.39	562.94414
406.705	549.12314
407.019	565.06931
407.334	597.97173
407.648	578.87566
407.962	545.93185
408.276	556.56681
408.591	567.19418
408.905	568.25651
409.219	589.48748
409.533	603.27207
409.847	589.48748
410.161	555.50366
410.475	562.94414
410.789	567.19418
411.102	555.50366
411.416	585.24363
411.73	607.51107
412.044	601.15215
412.357	594.79068
412.671	589.48748
412.984	566.13178
413.298	558.69289
413.611	569.31875
413.925	595.8511
414.238	615.9857
414.552	572.50506
414.865	555.50366
415.178	578.87566
415.491	567.19418
415.804	558.69289
416.118	551.25029
416.431	545.93185
416.744	559.75581
417.057	555.50366
417.37	573.56701
417.683	575.69069
417.995	580.99861
418.308	583.12126
418.621	573.56701
418.934	576.75242
419.246	539.54717
419.559	565.06931
419.872	576.75242
420.184	544.86793
420.497	569.31875
420.809	578.87566
421.121	561.88144
421.434	535.28916
421.746	550.18675
422.058	564.00676
422.371	543.80393
422.683	539.54717
422.995	566.13178
423.307	557.62989
423.619	535.28916
423.931	572.50506
424.243	585.24363
424.555	546.99569
424.867	544.86793
425.179	592.66961
425.491	583.12126
425.802	567.19418
426.114	585.24363
426.426	589.48748
426.737	573.56701
427.049	575.69069
427.361	589.48748
427.672	584.18248
427.984	583.12126
428.295	576.75242
428.606	589.48748
428.918	635.0375
429.229	667.79818
429.54	639.26825
429.851	585.24363
430.163	580.99861
430.474	601.15215
430.785	613.86746
431.096	579.93717
431.407	564.00676
431.718	580.99861
432.029	597.97173
432.339	596.91145
432.65	573.56701
432.961	576.75242
433.272	569.31875
433.582	583.12126
433.893	590.54827
434.204	577.81408
434.514	589.48748
434.825	575.69069
435.135	565.06931
435.446	610.68958
435.756	609.63015
436.066	572.50506
436.377	603.27207
436.687	595.8511
436.997	558.69289
437.307	586.3047
437.617	597.97173
437.927	592.66961
438.237	582.05997
438.547	571.44303
438.857	579.93717
439.167	593.73018
439.477	585.24363
439.787	567.19418
440.097	562.94414
440.407	553.37712
440.716	564.00676
441.026	600.09208
441.336	603.27207
441.645	583.12126
441.955	567.19418
442.264	564.00676
442.574	599.03194
442.883	611.74894
443.192	578.87566
443.502	570.38093
443.811	602.21215
444.12	578.87566
444.429	548.05945
444.739	585.24363
445.048	579.93717
445.357	570.38093
445.666	564.00676
445.975	569.31875
446.284	589.48748
446.593	582.05997
446.901	568.25651
447.21	576.75242
447.519	582.05997
447.828	574.62889
448.136	586.3047
448.445	569.31875
448.754	555.50366
449.062	567.19418
449.371	583.12126
449.679	562.94414
449.988	571.44303
450.296	621.28009
450.605	600.09208
450.913	571.44303
451.221	608.57064
451.529	599.03194
451.838	587.3657
452.146	579.93717
452.454	551.25029
452.762	591.60898
453.07	601.15215
453.378	560.81866
453.686	557.62989
453.994	585.24363
454.302	604.33193
454.609	569.31875
454.917	580.99861
455.225	594.79068
455.533	552.31374
455.84	545.93185
456.148	567.19418
456.455	579.93717
456.763	603.27207
457.07	593.73018
457.378	585.24363
457.685	588.42663
457.993	570.38093
458.3	582.05997
458.607	587.3657
458.915	597.97173
459.222	590.54827
459.529	574.62889
459.836	560.81866
460.143	570.38093
460.45	602.21215
460.757	578.87566
461.064	554.44043
461.371	560.81866
461.678	549.12314
461.985	557.62989
462.292	556.56681
462.598	546.99569
462.905	550.18675
463.212	567.19418
463.518	597.97173
463.825	600.09208
464.131	602.21215
464.438	611.74894
464.744	588.42663
465.051	558.69289
465.357	572.50506
465.664	572.50506
465.97	584.18248
466.276	617.04472
466.582	606.45143
466.889	586.3047
467.195	562.94414
467.501	549.12314
467.807	555.50366
468.113	556.56681
468.419	561.88144
468.725	575.69069
469.031	575.69069
469.337	610.68958
469.642	625.51436
469.948	588.42663
470.254	573.56701
470.56	583.12126
470.865	573.56701
471.171	562.94414
471.477	587.3657
471.782	584.18248
472.088	559.75581
472.393	585.24363
472.698	576.75242
473.004	567.19418
473.309	600.09208
473.614	596.91145
473.92	583.12126
474.225	558.69289
474.53	546.99569
474.835	557.62989
475.14	579.93717
475.445	589.48748
475.75	601.15215
476.055	596.91145
476.36	579.93717
476.665	568.25651
476.97	580.99861
477.275	605.39171
477.58	596.91145
477.885	600.09208
478.189	585.24363
478.494	567.19418
478.799	587.3657
479.103	588.42663
479.408	534.22446
479.712	534.22446
480.017	555.50366
480.321	560.81866
480.625	579.93717
480.93	578.87566
481.234	577.81408
481.538	588.42663
481.843	586.3047
482.147	585.24363
482.451	580.99861
482.755	592.66961
483.059	596.91145
483.363	592.66961
483.667	589.48748
483.971	561.88144
484.275	561.88144
484.579	577.81408
484.883	597.97173
485.187	610.68958
485.49	588.42663
485.794	559.75581
486.098	562.94414
486.401	571.44303
486.705	576.75242
487.009	586.3047
487.312	577.81408
487.616	565.06931
487.919	551.25029
488.222	552.31374
488.526	570.38093
488.829	572.50506
489.132	573.56701
489.436	559.75581
489.739	554.44043
490.042	584.18248
490.345	601.15215
490.648	599.03194
490.951	588.42663
491.254	573.56701
491.557	582.05997
491.86	585.24363
492.163	566.13178
492.466	554.44043
492.769	557.62989
493.072	589.48748
493.375	592.66961
493.677	585.24363
493.98	591.60898
494.283	587.3657
494.585	574.62889
494.888	562.94414
495.19	585.24363
495.493	575.69069
495.795	579.93717
496.098	590.54827
496.4	590.54827
496.702	597.97173
497.005	566.13178
497.307	593.73018
497.609	600.09208
497.911	593.73018
498.213	579.93717
498.515	571.44303
498.818	605.39171
499.12	585.24363
499.422	578.87566
499.723	577.81408
500.025	589.48748
500.327	599.03194
500.629	599.03194
500.931	575.69069
501.233	570.38093
501.534	580.99861
501.836	572.50506
502.138	577.81408
502.439	572.50506
502.741	570.38093
503.042	593.73018
503.344	593.73018
503.645	590.54827
503.947	595.8511
504.248	569.31875
504.55	572.50506
504.851	590.54827
505.152	590.54827
505.453	582.05997
505.755	604.33193
506.056	618.10366
506.357	580.99861
506.658	575.69069
506.959	587.3657
507.26	597.97173
507.561	590.54827
507.862	572.50506
508.163	583.12126
508.464	589.48748
508.764	587.3657
509.065	553.37712
509.366	568.25651
509.667	596.91145
509.967	597.97173
510.268	580.99861
510.569	555.50366
510.869	573.56701
511.17	557.62989
511.47	564.00676
511.771	589.48748
512.071	593.73018
512.371	620.22135
512.672	587.3657
512.972	551.25029
513.272	579.93717
513.573	556.56681
513.873	532.09483
514.173	557.62989
514.473	588.42663
514.773	588.42663
515.073	549.12314
515.373	524.63863
515.673	558.69289
515.973	584.18248
516.273	568.25651
516.573	570.38093
516.873	583.12126
517.172	592.66961
517.472	568.25651
517.772	553.37712
518.072	558.69289
518.371	588.42663
518.671	611.74894
518.97	605.39171
519.27	585.24363
519.569	551.25029
519.869	553.37712
520.168	564.00676
520.468	564.00676
520.767	579.93717
521.066	578.87566
521.366	553.37712
521.665	587.3657
521.964	585.24363
522.263	543.80393
522.562	597.97173
522.861	614.92662
523.161	565.06931
523.46	518.24449
523.759	536.35378
524.057	580.99861
524.356	575.69069
524.655	574.62889
524.954	601.15215
525.253	624.4559
525.552	587.3657
525.85	548.05945
526.149	569.31875
526.448	607.51107
526.746	600.09208
527.045	574.62889
527.344	606.45143
527.642	606.45143
527.941	580.99861
528.239	601.15215
528.537	604.33193
528.836	586.3047
529.134	610.68958
529.432	627.63109
529.731	612.80824
530.029	602.21215
530.327	579.93717
530.625	573.56701
530.923	558.69289
531.221	554.44043
531.52	558.69289
531.818	559.75581
532.116	548.05945
532.413	565.06931
532.711	596.91145
533.009	562.94414
533.307	551.25029
533.605	558.69289
533.903	569.31875
534.2	583.12126
534.498	564.00676
534.796	574.62889
535.093	562.94414
535.391	548.05945
535.689	570.38093
535.986	576.75242
536.284	567.19418
536.581	584.18248
536.878	617.04472
537.176	585.24363
537.473	565.06931
537.77	604.33193
538.068	606.45143
538.365	559.75581
538.662	589.48748
538.959	600.09208
539.256	591.60898
539.554	586.3047
539.851	583.12126
540.148	596.91145
540.445	568.25651
540.742	554.44043
541.039	556.56681
541.335	567.19418
541.632	589.48748
541.929	561.88144
542.226	558.69289
542.523	600.09208
542.819	605.39171
543.116	603.27207
543.413	596.91145
543.709	585.24363
544.006	577.81408
544.302	566.13178
544.599	567.19418
544.895	560.81866
545.192	555.50366
545.488	613.86746
545.785	653.01083
546.081	607.51107
546.377	564.00676
546.673	565.06931
546.97	602.21215
547.266	604.33193
547.562	586.3047
547.858	608.57064
548.154	590.54827
548.45	566.13178
548.746	587.3657
549.042	584.18248
549.338	585.24363
549.634	574.62889
549.93	556.56681
550.226	574.62889
550.522	582.05997
550.818	571.44303
551.113	571.44303
551.409	583.12126
551.705	567.19418
552	544.86793
552.296	562.94414
552.592	585.24363
552.887	566.13178
553.183	578.87566
553.478	577.81408
553.774	553.37712
554.069	570.38093
554.364	587.3657
554.66	577.81408
554.955	569.31875
555.25	570.38093
555.546	573.56701
555.841	603.27207
556.136	588.42663
556.431	579.93717
556.726	575.69069
557.021	545.93185
557.316	554.44043
557.611	552.31374
557.906	572.50506
558.201	588.42663
558.496	595.8511
558.791	609.63015
559.086	589.48748
559.381	555.50366
559.675	571.44303
559.97	595.8511
560.265	606.45143
560.56	589.48748
560.854	572.50506
561.149	597.97173
561.443	578.87566
561.738	549.12314
562.032	575.69069
562.327	585.24363
562.621	556.56681
562.916	567.19418
563.21	592.66961
563.504	588.42663
563.799	583.12126
564.093	599.03194
564.387	559.75581
564.681	548.05945
564.976	609.63015
565.27	579.93717
565.564	574.62889
565.858	604.33193
566.152	587.3657
566.446	590.54827
566.74	591.60898
567.034	572.50506
567.328	575.69069
567.622	613.86746
567.916	607.51107
568.209	577.81408
568.503	564.00676
568.797	588.42663
569.091	613.86746
569.384	580.99861
569.678	574.62889
569.972	575.69069
570.265	567.19418
570.559	586.3047
570.852	603.27207
571.146	586.3047
571.439	573.56701
571.733	611.74894
572.026	606.45143
572.319	589.48748
572.613	580.99861
572.906	590.54827
573.199	639.26825
573.492	609.63015
573.786	558.69289
574.079	584.18248
574.372	574.62889
574.665	567.19418
574.958	606.45143
575.251	580.99861
575.544	557.62989
575.837	561.88144
576.13	542.73986
576.423	553.37712
576.716	584.18248
577.009	602.21215
577.301	577.81408
577.594	548.05945
577.887	554.44043
578.18	574.62889
578.472	582.05997
578.765	570.38093
579.057	558.69289
579.35	557.62989
579.643	585.24363
579.935	588.42663
580.228	584.18248
580.52	588.42663
580.813	557.62989
581.105	544.86793
581.397	544.86793
581.69	529.96488
581.982	594.79068
582.274	624.4559
582.566	566.13178
582.859	555.50366
583.151	577.81408
583.443	562.94414
583.735	601.15215
584.027	613.86746
584.319	605.39171
584.611	602.21215
584.903	560.81866
585.195	594.79068
585.487	595.8511
585.779	555.50366
586.071	576.75242
586.363	597.97173
586.654	608.57064
586.946	610.68958
587.238	596.91145
587.529	571.44303
587.821	573.56701
588.113	594.79068
588.404	605.39171
588.696	584.18248
588.987	561.88144
589.279	578.87566
589.57	572.50506
589.862	573.56701
590.153	562.94414
590.445	569.31875
590.736	586.3047
591.027	575.69069
591.319	594.79068
591.61	600.09208
591.901	589.48748
592.192	571.44303
592.484	551.25029
592.775	553.37712
593.066	577.81408
593.357	640.32577
593.648	636.09528
593.939	568.25651
594.23	543.80393
594.521	571.44303
594.812	596.91145
595.103	603.27207
595.393	583.12126
595.684	569.31875
595.975	587.3657
596.266	573.56701
596.557	577.81408
596.847	591.60898
597.138	580.99861
597.429	564.00676
597.719	590.54827
598.01	588.42663
598.3	535.28916
598.591	576.75242
598.881	611.74894
599.172	582.05997
599.462	574.62889
599.753	576.75242
600.043	580.99861
600.333	583.12126
600.624	576.75242
600.914	577.81408
601.204	559.75581
601.494	560.81866
601.785	577.81408
602.075	576.75242
602.365	588.42663
602.655	591.60898
602.945	580.99861
603.235	591.60898
603.525	595.8511
603.815	583.12126
604.105	577.81408
604.395	567.19418
604.685	557.62989
604.975	601.15215
605.265	624.4559
605.554	574.62889
605.844	584.18248
606.134	605.39171
606.424	565.06931
606.713	546.99569
607.003	571.44303
607.293	606.45143
607.582	604.33193
607.872	576.75242
608.161	561.88144
608.451	571.44303
608.74	580.99861
609.03	571.44303
609.319	550.18675
609.608	549.12314
609.898	593.73018
610.187	596.91145
610.476	561.88144
610.766	569.31875
611.055	599.03194
611.344	594.79068
611.633	574.62889
611.922	594.79068
612.211	594.79068
612.501	562.94414
612.79	569.31875
613.079	584.18248
613.368	586.3047
613.657	614.92662
613.946	613.86746
614.234	595.8511
614.523	572.50506
614.812	554.44043
615.101	575.69069
615.39	613.86746
615.679	614.92662
615.967	595.8511
616.256	606.45143
616.545	586.3047
616.833	568.25651
617.122	577.81408
617.411	565.06931
617.699	556.56681
617.988	562.94414
618.276	560.81866
618.565	589.48748
618.853	585.24363
619.141	575.69069
619.43	578.87566
619.718	577.81408
620.007	590.54827
620.295	587.3657
620.583	560.81866
620.871	569.31875
621.16	577.81408
621.448	535.28916
621.736	552.31374
622.024	589.48748
622.312	577.81408
622.6	575.69069
622.888	576.75242
623.176	579.93717
623.464	588.42663
623.752	609.63015
624.04	632.92172
624.328	596.91145
624.616	579.93717
624.904	590.54827
625.192	591.60898
625.479	586.3047
625.767	552.31374
626.055	534.22446
626.343	603.27207
626.63	635.0375
626.918	575.69069
627.206	571.44303
627.493	575.69069
627.781	579.93717
628.068	583.12126
628.356	576.75242
628.643	587.3657
628.931	583.12126
629.218	567.19418
629.505	553.37712
629.793	556.56681
630.08	566.13178
630.367	565.06931
630.655	571.44303
630.942	567.19418
631.229	564.00676
631.516	558.69289
631.804	557.62989
632.091	585.24363
632.378	590.54827
632.665	599.03194
632.952	608.57064
633.239	609.63015
633.526	600.09208
633.813	582.05997
634.1	577.81408
634.387	560.81866
634.674	554.44043
634.961	556.56681
635.247	587.3657
635.534	601.15215
635.821	577.81408
636.108	593.73018
636.394	573.56701
636.681	554.44043
636.968	579.93717
637.255	582.05997
637.541	565.06931
637.828	556.56681
638.114	557.62989
638.401	595.8511
638.687	614.92662
638.974	571.44303
639.26	579.93717
639.547	609.63015
639.833	574.62889
640.119	580.99861
640.406	603.27207
640.692	595.8511
640.978	589.48748
641.265	610.68958
641.551	619.16254
641.837	591.60898
642.123	586.3047
642.409	589.48748
642.696	607.51107
642.982	607.51107
643.268	573.56701
643.554	569.31875
643.84	590.54827
644.126	589.48748
644.412	613.86746
644.698	606.45143
644.984	573.56701
645.269	575.69069
645.555	571.44303
645.841	560.81866
646.127	567.19418
646.413	591.60898
646.698	604.33193
646.984	576.75242
647.27	540.61148
647.556	544.86793
647.841	549.12314
648.127	570.38093
648.412	587.3657
648.698	592.66961
648.984	587.3657
649.269	592.66961
649.554	618.10366
649.84	604.33193
650.125	582.05997
650.411	583.12126
650.696	585.24363
650.982	584.18248
651.267	593.73018
651.552	584.18248
651.837	566.13178
652.123	567.19418
652.408	580.99861
652.693	580.99861
652.978	561.88144
653.263	542.73986
653.549	556.56681
653.834	595.8511
654.119	570.38093
654.404	554.44043
654.689	596.91145
654.974	603.27207
655.259	566.13178
655.544	554.44043
655.828	549.12314
656.113	544.86793
656.398	548.05945
656.683	551.25029
656.968	579.93717
657.253	608.57064
657.537	611.74894
657.822	600.09208
658.107	601.15215
658.391	600.09208
658.676	591.60898
658.961	589.48748
659.245	580.99861
659.53	568.25651
659.814	569.31875
660.099	578.87566
660.383	590.54827
660.668	582.05997
