Data from white_1_6_ST026791__116__22475.txt Node

Date: Tue Aug 19 16:20:09 AEST 2025
User: mathewyoussef
Spectrometer: ST02679
Trigger mode: 0
Integration Time (sec): 6.653700E-1
Scans to average: 1
Nonlinearity correction enabled: true
Boxcar width: 0
Storing dark spectrum: false
XAxis mode: Wavelengths
Number of Pixels in Spectrum: 1516
>>>>>Begin Spectral Data<<<<<
187.304	577.81408
187.653	623.39736
188.002	642.44061
188.351	617.04472
188.7	608.57064
189.048	619.16254
189.397	650.89731
189.746	625.51436
190.094	593.73018
190.443	594.79068
190.791	593.73018
191.14	595.8511
191.488	612.80824
191.837	610.68958
192.185	607.51107
192.533	596.91145
192.881	596.91145
193.229	594.79068
193.577	614.92662
193.925	620.22135
194.273	573.56701
194.621	586.3047
194.969	628.68935
195.317	621.28009
195.664	600.09208
196.012	599.03194
196.359	600.09208
196.707	603.27207
197.054	586.3047
197.402	590.54827
197.749	611.74894
198.096	606.45143
198.443	574.62889
198.791	585.24363
199.138	618.10366
199.485	591.60898
199.832	580.99861
200.179	622.33876
200.525	593.73018
200.872	569.31875
201.219	594.79068
201.566	597.97173
201.912	625.51436
202.259	608.57064
202.605	584.18248
202.952	594.79068
203.298	606.45143
203.644	631.86373
203.991	618.10366
204.337	604.33193
204.683	606.45143
205.029	592.66961
205.375	578.87566
205.721	626.57276
206.067	627.63109
206.413	614.92662
206.759	614.92662
207.104	587.3657
207.45	606.45143
207.796	608.57064
208.141	583.12126
208.487	591.60898
208.832	623.39736
209.177	622.33876
209.523	615.9857
209.868	582.05997
210.213	575.69069
210.558	572.50506
210.903	595.8511
211.248	619.16254
211.593	585.24363
211.938	599.03194
212.283	623.39736
212.628	596.91145
212.973	601.15215
213.317	607.51107
213.662	580.99861
214.007	579.93717
214.351	562.94414
214.696	589.48748
215.04	617.04472
215.384	602.21215
215.729	594.79068
216.073	578.87566
216.417	637.15301
216.761	655.12409
217.105	602.21215
217.449	609.63015
217.793	599.03194
218.137	594.79068
218.481	610.68958
218.824	625.51436
219.168	606.45143
219.512	566.13178
219.855	587.3657
220.199	595.8511
220.542	556.56681
220.886	585.24363
221.229	615.9857
221.572	582.05997
221.916	594.79068
222.259	617.04472
222.602	611.74894
222.945	602.21215
223.288	583.12126
223.631	603.27207
223.974	600.09208
224.317	586.3047
224.659	637.15301
225.002	633.97964
225.345	587.3657
225.687	603.27207
226.03	624.4559
226.372	623.39736
226.715	620.22135
227.057	610.68958
227.4	606.45143
227.742	612.80824
228.084	600.09208
228.426	606.45143
228.768	643.49793
229.11	617.04472
229.452	603.27207
229.794	630.80567
230.136	621.28009
230.478	611.74894
230.82	599.03194
231.161	589.48748
231.503	660.40609
231.845	676.24245
232.186	661.4623
232.528	636.09528
232.869	584.18248
233.21	588.42663
233.552	612.80824
233.893	602.21215
234.234	564.00676
234.575	570.38093
234.916	605.39171
235.257	595.8511
235.598	588.42663
235.939	611.74894
236.28	580.99861
236.621	564.00676
236.961	605.39171
237.302	624.4559
237.643	627.63109
237.983	613.86746
238.324	588.42663
238.664	621.28009
239.005	636.09528
239.345	615.9857
239.685	606.45143
240.025	584.18248
240.366	585.24363
240.706	602.21215
241.046	586.3047
241.386	566.13178
241.726	602.21215
242.066	624.4559
242.405	597.97173
242.745	593.73018
243.085	593.73018
243.425	591.60898
243.764	603.27207
244.104	662.51844
244.443	687.84674
244.783	644.55518
245.122	611.74894
245.461	600.09208
245.801	619.16254
246.14	601.15215
246.479	578.87566
246.818	572.50506
247.157	621.28009
247.496	654.06749
247.835	607.51107
248.174	597.97173
248.513	585.24363
248.852	629.74755
249.19	638.21066
249.529	595.8511
249.868	597.97173
250.206	602.21215
250.545	602.21215
250.883	604.33193
251.221	586.3047
251.56	569.31875
251.898	551.25029
252.236	568.25651
252.574	609.63015
252.912	580.99861
253.25	585.24363
253.588	619.16254
253.926	631.86373
254.264	624.4559
254.602	605.39171
254.94	588.42663
255.278	567.19418
255.615	590.54827
255.953	613.86746
256.29	618.10366
256.628	631.86373
256.965	572.50506
257.303	553.37712
257.64	624.4559
257.977	657.23708
258.314	613.86746
258.652	565.06931
258.989	586.3047
259.326	624.4559
259.663	650.89731
260	659.34982
260.337	610.68958
260.673	573.56701
261.01	592.66961
261.347	603.27207
261.684	571.44303
262.02	575.69069
262.357	604.33193
262.693	597.97173
263.03	599.03194
263.366	628.68935
263.702	599.03194
264.039	573.56701
264.375	624.4559
264.711	596.91145
265.047	567.19418
265.383	615.9857
265.719	613.86746
266.055	614.92662
266.391	635.0375
266.727	606.45143
267.063	589.48748
267.399	591.60898
267.734	608.57064
268.07	620.22135
268.405	626.57276
268.741	635.0375
269.076	626.57276
269.412	615.9857
269.747	610.68958
270.082	611.74894
270.418	614.92662
270.753	627.63109
271.088	625.51436
271.423	609.63015
271.758	600.09208
272.093	597.97173
272.428	587.3657
272.763	586.3047
273.098	593.73018
273.433	604.33193
273.767	625.51436
274.102	595.8511
274.436	588.42663
274.771	621.28009
275.106	601.15215
275.44	589.48748
275.774	633.97964
276.109	620.22135
276.443	596.91145
276.777	607.51107
277.111	647.72654
277.445	636.09528
277.78	579.93717
278.114	622.33876
278.447	621.28009
278.781	595.8511
279.115	626.57276
279.449	627.63109
279.783	629.74755
280.116	617.04472
280.45	604.33193
280.784	627.63109
281.117	633.97964
281.451	631.86373
281.784	709.97967
282.117	714.19244
282.451	627.63109
282.784	641.38322
283.117	646.66949
283.45	651.95411
283.783	644.55518
284.116	646.66949
284.449	682.573
284.782	705.76593
285.115	757.31963
285.448	740.50098
285.781	677.2977
286.114	682.573
286.446	722.61514
286.779	820.26583
287.111	817.12298
287.444	741.55257
287.776	789.8656
288.109	818.17065
288.441	809.78788
288.773	827.5974
289.106	880.94124
289.438	901.82735
289.77	901.82735
290.102	956.04976
290.434	959.17453
290.766	1025.75241
291.098	1039.25729
291.43	1031.98619
291.762	1080.77346
292.094	1104.6208
292.425	1141.91305
292.757	1150.19478
293.089	1184.33682
293.42	1197.77808
293.752	1271.107
294.083	1381.38127
294.414	1375.20455
294.746	1364.90828
295.077	1418.42553
295.408	1487.29923
295.74	1631.9745
296.071	1678.07809
296.402	1642.22249
296.733	1678.07809
297.064	1733.36161
297.395	1795.7604
297.726	1856.06401
298.056	1917.34187
298.387	2013.25032
298.718	2116.17749
299.049	2156.90603
299.379	2097.84326
299.71	2091.73096
300.04	2192.52746
300.371	2237.28748
300.701	2288.12246
301.031	2454.64544
301.362	2547.91363
301.692	2517.51189
302.022	2525.62014
302.352	2555.00571
302.682	2658.27569
303.012	2699.74782
303.342	2760.39841
303.672	2835.13387
304.002	2881.55324
304.332	3036.74198
304.662	3150.39914
304.992	3193.6006
305.321	3256.84698
305.651	3371.14454
305.98	3449.23775
306.31	3478.24953
306.639	3503.24976
306.969	3471.24782
307.298	3490.25079
307.628	3655.0542
307.957	3726.84468
308.286	3748.76586
308.615	3914.94629
308.944	3971.57908
309.273	3971.57908
309.602	4039.08465
309.931	4219.4726
310.26	4378.72035
310.589	4402.43487
310.918	4380.69679
311.247	4514.99899
311.575	4620.53948
311.904	4646.16974
312.233	4775.22535
312.561	4762.42403
312.89	4797.87094
313.218	5073.30439
313.546	5134.2431
313.875	5028.082
314.203	5101.80975
314.531	5159.79405
314.859	5233.48755
315.188	5336.63713
315.516	5306.18547
315.844	5329.76107
316.172	5504.59762
316.5	5651.93767
316.827	5675.51485
317.155	5714.81264
317.483	5800.29853
317.811	5836.66111
318.138	5981.17671
318.466	6110.04134
318.794	6066.74927
319.121	6091.34583
319.449	6104.13729
319.776	6115.94557
320.103	6207.48622
320.431	6391.70744
320.758	6539.6452
321.085	6485.38319
321.412	6568.26477
321.739	6557.40836
322.066	6573.19979
322.393	6680.82877
322.72	6701.57473
323.047	6811.28706
323.374	6948.80602
323.701	7002.26999
324.028	7089.44301
324.354	7138.00719
324.681	7152.87724
325.008	7315.55956
325.334	7331.4408
325.661	7331.4408
325.987	7443.64887
326.314	7502.26649
326.64	7587.74463
326.966	7750.85384
327.293	7626.52101
327.619	7481.40025
327.945	7654.36519
328.271	7816.52885
328.597	7794.63527
328.923	7764.78344
329.249	7966.84285
329.575	7946.92976
329.901	7783.68918
330.227	7930.00449
330.552	8017.62572
330.878	7953.89922
331.204	7974.80838
331.529	7965.84717
331.855	8145.10298
332.18	8383.15972
332.506	8301.48388
332.831	8268.61349
333.156	8458.85315
333.482	8575.36038
333.807	8472.79571
334.132	8441.92245
334.457	8507.65047
334.782	8618.17051
335.107	8732.63224
335.432	8689.83922
335.757	8803.27339
336.082	8933.54647
336.407	8919.62858
336.732	8934.54056
337.057	8979.26858
337.381	9053.78739
337.706	9077.62563
338.031	9062.72718
338.355	9147.13104
338.68	9255.28911
339.004	9082.59144
339.329	9003.1185
339.653	9133.23274
339.977	9181.8705
340.301	9266.19904
340.626	9264.21549
340.95	9384.16159
341.274	9548.51149
341.598	9449.5346
341.922	9492.1056
342.246	9600.93265
342.57	9617.74154
342.894	9811.34519
343.218	9962.22865
343.541	9964.19958
343.865	9939.56036
344.189	9933.64611
344.512	9994.74453
344.836	10017.40145
345.159	10062.70159
345.483	10108.96803
345.806	10013.46145
346.13	10117.82548
346.453	10267.32171
346.776	10155.21633
347.099	10321.37398
347.423	10434.32964
347.746	10177.84205
348.069	10289.92791
348.392	10552.12013
348.715	10456.91161
349.038	10460.83862
349.361	10634.53802
349.683	10687.50985
350.006	10699.28048
350.329	10770.88041
350.652	10798.34211
350.974	10772.84198
351.297	10870.9197
351.619	10964.10369
351.942	11018.06331
352.264	11065.16517
352.587	11137.80406
352.909	11155.47812
353.231	11107.37035
353.554	11073.99799
353.876	11134.85859
354.198	11387.46496
354.52	11509.6171
354.842	11478.07282
355.164	11499.75783
355.486	11474.13087
355.808	11409.12165
356.13	11506.65916
356.452	11618.17829
356.773	11537.2315
357.095	11396.32376
357.417	11336.30014
357.738	11371.71848
358.06	11672.54075
358.381	11776.4948
358.703	11455.40982
359.024	11445.55871
359.346	11558.93752
359.667	11556.96391
359.988	11724.98342
360.309	11734.88486
360.631	11681.44205
360.952	11832.03726
361.273	11936.3868
361.594	12070.98855
361.915	12166.03356
362.236	12213.16236
362.557	12234.24356
362.878	12221.19155
363.198	12132.98588
363.519	12019.08023
363.84	12142.99667
364.16	12232.23519
364.481	12165.0316
364.802	12098.97268
365.122	12185.07691
365.443	12223.19918
365.763	12130.98411
366.083	12172.04598
366.404	12076.98314
366.724	12002.1273
367.044	12028.05869
367.364	11939.37242
367.685	12005.11839
368.005	12065.99388
368.325	12060.00127
368.645	12115.97478
368.965	11959.28275
369.284	11907.53816
369.604	12072.98663
369.924	12175.05263
370.244	12369.12008
370.564	12481.33797
370.883	12483.36415
371.203	12535.08377
371.522	12518.84723
371.842	12712.30639
372.161	12823.94302
372.481	12460.07217
372.8	12461.08445
373.119	12699.02392
373.439	12830.10209
373.758	12905.15374
374.077	12681.66478
374.396	12526.96426
374.715	12477.28605
375.034	12310.66321
375.353	12010.10412
375.672	11598.42423
375.991	10987.64843
376.31	10559.97054
376.629	10499.12282
376.948	10649.25315
377.266	11030.81905
377.585	11298.92999
377.904	11644.85805
378.222	12108.97283
378.541	12633.73207
378.859	13172.08454
379.178	13302.28993
379.496	13133.64857
379.814	12834.20895
380.133	12660.23713
380.451	12561.48936
380.769	12222.19535
381.087	12199.1164
381.405	12322.74788
381.723	12294.55822
382.041	12390.31545
382.359	12504.64836
382.677	12501.60672
382.995	12630.67553
383.313	12650.03969
383.631	12615.39817
383.949	12723.55072
384.266	12876.34145
384.584	13016.5794
384.901	12979.38629
385.219	12950.49359
385.537	12838.31645
385.854	12725.59566
386.171	12772.67398
386.489	13004.17606
386.806	12958.74548
387.123	12848.58803
387.441	12949.46228
387.758	12783.9445
388.075	12594.02484
388.392	12649.02016
388.709	12540.15973
389.026	12347.94073
389.343	12520.87625
389.66	12785.99421
389.977	12829.07548
390.294	12791.11919
390.61	12968.03188
390.927	13160.65245
391.244	13019.68111
391.56	12844.47892
391.877	12841.3975
392.193	12711.28442
392.51	12702.0885
392.826	12769.60105
393.143	12693.91709
393.459	12766.52848
393.775	12913.39159
394.092	12876.34145
394.408	12865.03096
394.724	13019.68111
395.04	13230.3508
395.356	13199.12305
395.672	13359.74147
395.988	13600.85751
396.304	13692.32298
396.62	13767.01886
396.936	13785.959
397.252	13828.04785
397.567	13942.68851
397.883	14072.85408
398.199	13946.89273
398.514	13936.38167
398.83	13965.80826
399.146	13728.08927
399.461	13630.28405
399.777	13636.59119
400.092	13649.20689
400.407	13660.77284
400.723	13402.62726
401.038	13027.95405
401.353	12979.38629
401.668	13073.49938
401.983	12918.54156
402.298	12777.79633
402.613	12613.36187
402.928	12544.22119
403.243	12510.73266
403.558	12598.09461
403.873	12758.33675
404.188	12776.77178
404.503	12694.93837
404.817	12646.98123
405.132	12626.60069
405.447	12700.04541
405.761	12691.87463
406.076	12652.07886
406.39	12795.21991
406.705	12838.31645
407.019	12961.84059
407.334	13036.22948
407.648	12948.43101
407.962	12839.34343
408.276	12882.51286
408.591	12937.08969
408.905	12859.89143
409.219	12952.55632
409.533	12943.27527
409.847	12994.87724
410.161	13123.26907
410.475	13237.64174
410.789	13220.9792
411.102	13061.07056
411.416	13072.46344
411.73	13003.1427
412.044	12979.38629
412.357	12869.1433
412.671	12815.73318
412.984	12923.69252
413.298	12740.9379
413.611	12772.67398
413.925	12914.42151
414.238	12925.75318
414.552	12970.09597
414.865	12739.91481
415.178	12570.6359
415.491	12468.17145
415.804	12410.51657
416.118	12427.69916
416.431	12202.1257
416.744	12192.09585
417.057	12351.97366
417.37	12309.65639
417.683	12198.11337
417.995	12167.03555
418.308	12148.00325
418.621	12219.18405
418.934	12251.32018
419.246	12280.4737
419.559	12436.80019
419.872	12683.70643
420.184	12957.71385
420.497	12810.60335
420.809	12807.52593
421.121	12734.79992
421.434	12598.09461
421.746	12737.86873
422.058	12667.37772
422.371	12359.03268
422.683	12137.99088
422.995	12052.01279
423.307	12111.97348
423.619	12247.30127
423.931	12120.97711
424.243	11999.13646
424.555	11834.02229
424.867	11801.28148
425.179	11758.65718
425.491	11546.11026
425.802	11544.13709
426.114	11625.09395
426.426	11478.07282
426.737	11507.64512
427.049	11618.17829
427.361	11558.93752
427.672	11514.54733
427.984	11347.1208
428.295	11336.30014
428.606	11414.0445
428.918	11413.0599
429.229	11400.26134
429.54	11347.1208
429.851	11052.40737
430.163	10776.76509
430.474	10733.61007
430.785	10964.10369
431.096	11093.62801
431.407	11046.51943
431.718	11091.66491
432.029	10901.32523
432.339	10847.38071
432.65	10990.59165
432.961	10951.35101
433.272	10926.82786
433.582	10984.70523
433.893	10912.11464
434.204	10826.78441
434.514	10939.57971
434.825	10986.66736
435.135	10959.19876
435.446	11007.27052
435.756	11040.63166
436.066	11116.20533
436.377	11171.1903
436.687	11159.40599
436.997	11077.92382
437.307	11169.22618
437.617	11151.55036
437.927	10917.99988
438.237	10967.04669
438.547	11148.60461
438.857	11222.26841
439.167	11388.44922
439.477	11432.75438
439.787	11309.74606
440.097	11323.51385
440.407	11283.19975
440.716	11073.01655
441.026	11055.35141
441.336	11126.02255
441.645	10999.42151
441.955	10900.34438
442.264	10866.0157
442.574	11007.27052
442.883	10925.84697
443.192	10754.20701
443.502	10903.28692
443.811	10892.49767
444.12	10758.13019
444.429	10594.31326
444.739	10553.10144
445.048	10577.63307
445.357	10508.93811
445.666	10505.99357
445.975	10496.17815
446.284	10452.00272
446.593	10297.79008
446.901	10218.16471
447.21	10331.19947
447.519	10322.35655
447.828	10331.19947
448.136	10445.13006
448.445	10611.97356
448.754	10599.21901
449.062	10451.02093
449.371	10461.82036
449.679	10663.96769
449.988	10858.16935
450.296	11154.49617
450.605	11548.0835
450.913	11798.30632
451.221	12245.29202
451.529	12546.25216
451.838	12347.94073
452.146	12006.11548
452.454	11871.75649
452.762	11848.91312
453.07	11523.42273
453.378	11314.66289
453.686	11251.74686
453.994	11204.58507
454.302	11052.40737
454.609	10623.74652
454.917	10536.41853
455.225	10558.98925
455.533	10340.04185
455.84	10393.08546
456.148	10414.6908
456.455	10138.49028
456.763	10160.13532
457.07	10388.17477
457.378	10578.61429
457.685	10475.5642
457.993	10290.91071
458.3	10483.41739
458.607	10759.11098
458.915	10915.05725
459.222	10944.48438
459.529	10826.78441
459.836	10897.40185
460.143	10783.63053
460.45	10472.61918
460.757	10421.56465
461.064	10538.38129
461.371	10643.36717
461.678	10680.64352
461.985	10780.6882
462.292	10983.72417
462.598	11367.78235
462.905	11695.29178
463.212	11837.00002
463.518	11948.33072
463.825	12171.04383
464.131	12596.05965
464.438	12780.87023
464.744	12328.79213
465.051	12017.08534
465.357	12237.25637
465.664	12234.24356
465.97	11681.44205
466.276	11385.49648
466.582	11364.83038
466.889	11361.87852
467.195	11699.24958
467.501	12110.97323
467.807	12922.66224
468.113	13710.20507
468.419	14277.40632
468.725	14744.10056
469.031	15095.14763
469.337	15234.87433
469.642	14954.98082
469.948	14639.03728
470.254	14492.57854
470.56	14056.0819
470.865	13406.81376
471.171	13111.85589
471.477	12733.77706
471.782	12235.24779
472.088	12067.99166
472.393	12163.02779
472.698	11770.54812
473.004	11329.41498
473.309	11462.30644
473.614	11865.79608
473.92	12376.18341
474.225	12428.71024
474.53	12265.39068
474.835	12263.3802
475.14	12004.12133
475.445	11670.5629
475.75	11268.45498
476.055	10966.06568
476.36	10748.32222
476.665	10351.83089
476.97	10008.53625
477.275	10031.19038
477.58	10259.45781
477.885	10298.77282
478.189	10171.94009
478.494	10003.61083
478.799	9825.16041
479.103	9878.43081
479.408	9779.76075
479.712	9789.6319
480.017	10114.87307
480.321	10323.33913
480.625	10417.63677
480.93	10478.50918
481.234	10952.33197
481.538	11495.81455
481.843	11745.77895
482.147	11995.14907
482.451	12191.09305
482.755	12417.59045
483.059	12502.62056
483.363	12511.74685
483.667	12751.17111
483.971	12745.0307
484.275	12620.48963
484.579	12843.45174
484.883	13008.30988
485.187	12844.47892
485.49	12587.92138
485.794	12490.45701
486.098	12525.9495
486.401	12341.8924
486.705	12139.9931
487.009	12056.00679
487.312	12191.09305
487.616	12241.27392
487.919	11898.58963
488.222	11799.29801
488.526	11890.63713
488.829	11911.51597
489.132	12027.06096
489.436	11817.15258
489.739	11755.68495
490.042	11925.44159
490.345	11801.28148
490.648	11706.17653
490.951	11736.86541
491.254	11964.26203
491.557	12183.0718
491.86	12300.59654
492.163	12632.71318
492.466	12974.2246
492.769	13391.11664
493.072	13738.6102
493.375	13819.63034
493.677	13909.04584
493.98	13895.3746
494.283	13778.59334
494.585	13514.75689
494.888	13047.61223
495.19	12759.36058
495.493	12699.02392
495.795	12588.93852
496.098	12347.94073
496.4	12048.01926
496.702	11896.60135
497.005	11981.19677
497.307	12066.99275
497.609	11888.64926
497.911	11748.75052
498.213	11768.56607
498.515	11726.96354
498.818	11762.62047
499.12	11822.11354
499.422	11751.72228
499.723	11727.95363
500.025	11652.76583
500.327	11609.28806
500.629	11718.05368
500.931	11747.75997
501.233	11712.11473
501.534	11651.77729
501.836	11581.63896
502.138	11889.64318
502.439	11955.29981
502.741	11705.18691
503.042	11783.43362
503.344	11861.82298
503.645	12046.02267
503.947	12035.04355
504.248	11878.71145
504.55	11829.05989
504.851	11933.40142
505.152	12095.97324
505.453	11944.34898
505.755	11923.4519
506.056	11909.52701
506.357	11697.27064
506.658	11700.23908
506.959	11765.59317
507.26	11778.4772
507.561	11754.69425
507.862	11782.44229
508.163	11784.42497
508.464	11653.75439
508.764	11636.9515
509.065	11639.91631
509.366	11759.64797
509.667	11790.37357
509.967	11578.67738
510.268	11458.36542
510.569	11613.23909
510.869	11567.8196
511.17	11404.19913
511.47	11501.72956
511.771	11431.76952
512.071	11419.95236
512.371	11441.61867
512.672	11375.6548
512.972	11393.37071
513.272	11369.75039
513.573	11182.97567
513.873	11227.18093
514.173	11336.30014
514.473	11242.90248
514.773	11214.40881
515.073	11161.36997
515.373	11027.87536
515.673	11070.07224
515.973	11074.97944
516.273	10928.78966
516.573	10979.79998
516.873	10931.73237
517.172	10784.6113
517.472	10745.37981
517.772	10763.03414
518.072	10818.93825
518.371	10838.5537
518.671	10725.76347
518.97	10815.01518
519.27	10920.94252
519.569	10757.1494
519.869	10644.34817
520.168	10735.5717
520.468	10693.3952
520.767	10582.53911
521.066	10447.0937
521.366	10369.51274
521.665	10418.61875
521.964	10325.30425
522.263	10348.88372
522.562	10464.76556
522.861	10274.20225
523.161	10171.94009
523.46	10249.62728
523.759	10246.67799
524.057	10179.80931
524.356	10124.71414
524.655	10145.37776
524.954	10149.31328
525.253	10230.94729
525.552	10231.93051
525.85	10125.6982
526.149	10042.02335
526.448	10048.91651
526.746	9978.98046
527.045	9913.92962
527.344	10097.15707
527.642	10144.39385
527.941	9967.15592
528.239	9820.22661
528.537	9829.10728
528.836	9895.1956
529.134	9702.73391
529.432	9668.15225
529.731	9784.69644
530.029	9732.3663
530.327	9623.67346
530.625	9583.13211
530.923	9673.09318
531.221	9675.06949
531.52	9579.17603
531.818	9544.55413
532.116	9507.94178
532.413	9440.62233
532.711	9411.9002
533.009	9409.91909
533.307	9300.906
533.605	9193.77907
533.903	9232.47435
534.2	9254.29725
534.498	9173.93085
534.796	9237.43443
535.093	9260.24829
535.391	9144.15295
535.689	9162.02049
535.986	9227.51407
536.284	9105.43194
536.581	9062.72718
536.878	9136.21107
537.176	9021.99711
537.473	8972.31169
537.77	9052.79404
538.068	9075.63926
538.365	8976.28709
538.662	8977.28093
538.959	8905.70958
539.256	8707.75346
539.554	8768.45309
539.851	8988.21272
540.148	8878.86273
540.445	8754.52342
540.742	8700.78696
541.039	8663.96094
541.335	8774.42268
541.632	8789.34594
541.929	8668.93772
542.226	8600.25066
542.523	8723.67617
542.819	8676.90039
543.116	8581.33421
543.413	8597.26392
543.709	8560.42537
544.006	8577.35167
544.302	8571.37777
544.599	8553.4555
544.895	8569.38645
545.192	8517.6085
545.488	8566.39945
545.785	8441.92245
546.081	8337.34211
546.377	8497.69222
546.673	8469.80805
546.97	8306.46423
547.266	8414.03562
547.562	8473.79159
547.858	8338.33816
548.154	8243.71164
548.45	8257.65667
548.746	8340.33027
549.042	8209.84538
549.338	7976.79978
549.634	8078.37327
549.93	8187.9322
550.226	7992.73139
550.522	8033.55881
550.818	8095.30409
551.113	8021.60894
551.409	8075.38553
551.705	8092.31627
552	8105.2636
552.296	8083.35288
552.592	7899.14292
552.887	7897.15195
553.183	8036.54632
553.478	7988.74843
553.774	7893.17005
554.069	7928.01334
554.364	7959.87315
554.66	7851.36322
554.955	7807.57216
555.25	7735.93017
555.546	7702.10682
555.841	7834.44312
556.136	7862.31206
556.431	7785.67935
556.726	7643.42594
557.021	7604.64619
557.316	7727.97128
557.611	7695.14383
557.906	7707.08052
558.201	7711.05956
558.496	7615.58329
558.791	7641.43705
559.086	7568.85645
559.381	7491.33624
559.675	7555.93407
559.97	7637.45933
560.265	7578.79736
560.56	7420.80357
560.854	7478.41956
561.149	7439.67554
561.443	7283.80217
561.738	7258.99652
562.032	7271.89493
562.327	7240.14708
562.621	7247.09132
562.916	7245.10722
563.21	7222.29201
563.504	7075.57075
563.799	6989.39703
564.093	7183.61379
564.387	7070.61672
564.681	6925.0513
564.976	7019.10575
565.27	7057.7371
565.564	6971.57503
565.858	6874.58697
566.152	6908.22767
566.446	6974.5452
566.74	6963.65493
567.034	6872.60838
567.328	6846.88944
567.622	7046.83994
567.916	7101.33467
568.209	7010.19243
568.503	6818.20898
568.797	6625.52222
569.091	6695.64698
569.384	6759.87873
569.678	6700.58676
569.972	6688.7316
570.265	6781.62591
570.559	6666.99995
570.852	6716.3953
571.146	6759.87873
571.439	6650.20977
571.733	6750.9832
572.026	6728.25297
572.319	6739.12346
572.613	6769.76336
572.906	6768.77486
573.199	6831.06495
573.492	6694.65904
573.786	6521.88436
574.079	6645.27189
574.372	6652.18497
574.665	6497.22035
574.958	6494.26096
575.251	6511.03165
575.544	6546.55282
575.837	6587.01882
576.13	6536.6849
576.423	6518.92444
576.716	6406.49427
577.009	6345.38503
577.301	6413.3953
577.594	6311.88414
577.887	6354.25416
578.18	6467.62933
578.472	6400.57935
578.765	6404.5226
579.057	6406.49427
579.35	6338.48718
579.643	6340.45796
579.935	6281.34558
580.228	6202.56344
580.52	6233.08699
580.813	6279.37555
581.105	6221.27076
581.397	6153.34351
581.69	6264.60115
581.982	6261.64644
582.274	6239.98019
582.566	6218.31683
582.859	6117.91369
583.151	6140.54861
583.443	6155.31204
583.735	6275.43558
584.027	6340.45796
584.319	6176.96732
584.611	5955.60992
584.903	5942.82759
585.195	6065.76548
585.487	6043.13949
585.779	5953.64336
586.071	5991.01087
586.363	6053.96029
586.654	6034.28654
586.946	6012.6476
587.238	5952.66009
587.529	5898.5863
587.821	5880.89195
588.113	5928.07961
588.404	5846.48959
588.696	5723.65512
588.987	5817.00513
589.279	5893.67108
589.57	5852.38684
589.862	5799.31582
590.153	5789.48884
590.445	5796.36769
590.736	5744.28833
591.027	5713.83016
591.319	5743.30577
591.61	5798.33311
591.901	5832.72982
592.192	5708.91776
592.484	5584.15833
592.775	5627.37916
593.066	5685.33899
593.357	5749.20115
593.648	5694.18089
593.939	5592.01648
594.23	5581.21154
594.521	5533.0818
594.812	5458.43408
595.103	5480.04251
595.393	5526.20627
595.684	5508.52645
595.975	5562.54875
596.266	5471.2027
596.557	5447.62985
596.847	5453.52307
597.138	5374.94553
597.429	5242.3298
597.719	5156.84598
598.01	5176.49929
598.3	5158.81136
598.591	5137.1914
598.881	5218.75005
599.172	5252.1543
599.462	5166.67279
599.753	5103.77552
600.043	5052.6605
600.333	5083.13419
600.624	5171.58608
600.914	5096.89526
601.204	5049.71122
601.494	5088.04895
601.785	5034.96425
602.075	5043.81255
602.365	5028.082
602.655	4991.70067
602.945	5028.082
603.235	5016.28334
603.525	4886.45074
603.815	4825.43466
604.105	4866.77072
604.395	4945.47693
604.685	4879.56301
604.975	4855.94568
605.265	4898.25761
605.554	4864.80259
605.844	4900.22534
606.134	4858.89804
606.424	4780.14861
606.713	4737.80271
607.003	4711.20649
607.293	4796.88643
607.582	4764.39354
607.872	4699.38418
608.161	4737.80271
608.451	4738.78765
608.74	4760.45449
609.03	4698.39894
609.319	4627.44049
609.608	4643.21269
609.898	4676.72162
610.187	4658.98276
610.476	4605.75019
610.766	4602.7921
611.055	4623.49711
611.344	4588.00049
611.633	4533.74741
611.922	4578.13831
612.211	4570.24793
612.501	4538.68064
612.79	4589.97281
613.079	4591.94511
613.368	4568.27525
613.657	4560.38415
613.946	4545.58678
614.234	4552.49248
614.523	4553.47897
614.812	4626.45466
615.101	4639.26984
615.39	4623.49711
615.679	4578.13831
615.967	4613.63805
616.256	4732.87789
616.545	4630.39794
616.833	4549.53295
617.122	4511.05152
617.411	4529.80065
617.699	4554.46545
617.988	4479.46627
618.276	4470.58114
618.565	4484.40212
618.853	4473.54294
619.141	4486.37639
619.43	4488.35062
619.718	4599.83394
620.007	4636.31261
620.295	4555.45192
620.583	4550.51947
620.871	4579.12457
621.16	4539.66726
621.448	4481.44064
621.736	4552.49248
622.024	4552.49248
622.312	4449.84605
622.6	4421.2046
622.888	4464.65727
623.176	4445.89601
623.464	4371.80247
623.752	4386.62586
624.04	4398.48287
624.328	4372.79077
624.616	4331.27292
624.904	4269.94916
625.192	4302.59458
625.479	4325.34023
625.767	4272.91744
626.055	4259.06461
626.343	4303.58364
626.63	4218.48256
626.918	4100.58175
627.206	4145.18643
627.493	4097.60721
627.781	4040.07693
628.068	4091.65778
628.356	4100.58175
628.643	4091.65778
628.931	4065.87167
629.218	4005.33944
629.505	3966.61303
629.793	3994.41864
630.08	4033.13071
630.367	4015.26606
630.655	3995.4115
630.942	3904.01212
631.229	3930.84762
631.516	3957.6733
631.804	3921.90355
632.091	3946.7455
632.378	3915.94023
632.665	3987.46821
632.952	3980.51713
633.239	3914.94629
633.526	3882.13882
633.813	3872.19423
634.1	3919.91583
634.387	3897.05315
634.674	3832.40207
634.961	3788.60499
635.247	3816.47899
635.534	3736.80971
635.821	3707.90719
636.108	3792.58767
636.394	3780.63898
636.681	3728.8378
636.968	3681.98436
637.255	3644.07964
637.541	3583.18885
637.828	3582.19019
638.114	3578.1954
638.401	3562.21391
638.687	3563.21286
638.974	3495.25069
639.26	3517.24587
639.547	3640.08845
639.833	3549.22619
640.119	3469.2472
640.406	3428.22148
640.692	3494.25074
640.978	3613.1419
641.265	3525.24236
641.551	3410.20236
641.837	3434.22679
642.123	3507.24894
642.409	3507.24894
642.696	3467.24652
642.982	3438.23004
643.268	3467.24652
643.554	3474.24864
643.84	3565.21072
644.126	3478.24953
644.412	3527.24133
644.698	3639.09062
644.984	3596.17011
645.269	3619.13094
645.555	3610.14718
645.841	3662.0371
646.127	3558.21795
646.413	3574.20038
646.698	3702.92278
646.984	3685.97312
647.27	3701.92586
647.556	3790.59636
647.841	3852.30091
648.127	3852.30091
648.412	3881.14442
648.698	4004.3467
648.984	4051.98328
649.269	4000.37563
649.554	4104.54764
649.84	4072.81493
650.125	4031.14595
650.411	4106.5305
650.696	4049.99901
650.982	4077.77402
651.267	4081.74106
651.552	3998.39002
651.837	3932.83504
652.123	3930.84762
652.408	3968.59949
652.693	3984.48925
652.978	3924.88503
653.263	3820.46009
653.549	3849.31644
653.834	3871.19969
654.119	3734.81681
654.404	3692.95289
654.689	3730.83086
654.974	3635.09915
655.259	3583.18885
655.544	3704.91659
655.828	3716.87822
656.113	3637.09492
656.398	3739.79894
656.683	3953.69974
656.968	2787.67538
657.253	1089.07016
657.537	643.49793
657.822	591.60898
658.107	571.44303
658.391	558.69289
658.676	579.93717
658.961	606.45143
659.245	586.3047
659.53	571.44303
659.814	578.87566
660.099	592.66961
660.383	620.22135
660.668	609.63015
