Data from white_1_6_ST026791__126__22485.txt Node

Date: Tue Aug 19 16:20:23 AEST 2025
User: mathewyoussef
Spectrometer: ST02679
Trigger mode: 0
Integration Time (sec): 6.653700E-1
Scans to average: 1
Nonlinearity correction enabled: true
Boxcar width: 0
Storing dark spectrum: false
XAxis mode: Wavelengths
Number of Pixels in Spectrum: 1516
>>>>>Begin Spectral Data<<<<<
187.304	579.93717
187.653	626.57276
188.002	640.32577
188.351	592.66961
188.7	569.31875
189.048	623.39736
189.397	656.18062
189.746	618.10366
190.094	625.51436
190.443	612.80824
190.791	579.93717
191.14	592.66961
191.488	584.18248
191.837	575.69069
192.185	577.81408
192.533	580.99861
192.881	583.12126
193.229	586.3047
193.577	621.28009
193.925	614.92662
194.273	593.73018
194.621	585.24363
194.969	607.51107
195.317	631.86373
195.664	624.4559
196.012	620.22135
196.359	593.73018
196.707	577.81408
197.054	570.38093
197.402	610.68958
197.749	620.22135
198.096	576.75242
198.443	589.48748
198.791	596.91145
199.138	600.09208
199.485	606.45143
199.832	603.27207
200.179	589.48748
200.525	557.62989
200.872	559.75581
201.219	577.81408
201.566	618.10366
201.912	627.63109
202.259	600.09208
202.605	589.48748
202.952	595.8511
203.298	596.91145
203.644	609.63015
203.991	597.97173
204.337	584.18248
204.683	606.45143
205.029	606.45143
205.375	593.73018
205.721	615.9857
206.067	617.04472
206.413	610.68958
206.759	628.68935
207.104	611.74894
207.45	620.22135
207.796	619.16254
208.141	599.03194
208.487	605.39171
208.832	603.27207
209.177	600.09208
209.523	593.73018
209.868	568.25651
210.213	568.25651
210.558	594.79068
210.903	624.4559
211.248	603.27207
211.593	595.8511
211.938	623.39736
212.283	639.26825
212.628	609.63015
212.973	570.38093
213.317	574.62889
213.662	564.00676
214.007	595.8511
214.351	623.39736
214.696	603.27207
215.04	600.09208
215.384	588.42663
215.729	571.44303
216.073	573.56701
216.417	591.60898
216.761	602.21215
217.105	626.57276
217.449	636.09528
217.793	620.22135
218.137	605.39171
218.481	585.24363
218.824	597.97173
219.168	603.27207
219.512	584.18248
219.855	565.06931
220.199	575.69069
220.542	595.8511
220.886	607.51107
221.229	610.68958
221.572	612.80824
221.916	626.57276
222.259	619.16254
222.602	603.27207
222.945	596.91145
223.288	586.3047
223.631	587.3657
223.974	609.63015
224.317	587.3657
224.659	568.25651
225.002	601.15215
225.345	608.57064
225.687	629.74755
226.03	656.18062
226.372	614.92662
226.715	582.05997
227.057	572.50506
227.4	593.73018
227.742	631.86373
228.084	613.86746
228.426	582.05997
228.768	578.87566
229.11	584.18248
229.452	560.81866
229.794	570.38093
230.136	584.18248
230.478	556.56681
230.82	583.12126
231.161	601.15215
231.503	642.44061
231.845	664.63053
232.186	703.65871
232.528	681.51806
232.869	582.05997
233.21	584.18248
233.552	571.44303
233.893	555.50366
234.234	585.24363
234.575	612.80824
234.916	596.91145
235.257	575.69069
235.598	605.39171
235.939	639.26825
236.28	595.8511
236.621	571.44303
236.961	620.22135
237.302	645.61237
237.643	605.39171
237.983	594.79068
238.324	626.57276
238.664	663.57452
239.005	639.26825
239.345	597.97173
239.685	636.09528
240.025	637.15301
240.366	603.27207
240.706	608.57064
241.046	612.80824
241.386	593.73018
241.726	600.09208
242.066	594.79068
242.405	582.05997
242.745	611.74894
243.085	629.74755
243.425	626.57276
243.764	642.44061
244.104	692.06461
244.443	676.24245
244.783	609.63015
245.122	587.3657
245.461	591.60898
245.801	601.15215
246.14	600.09208
246.479	576.75242
246.818	573.56701
247.157	638.21066
247.496	640.32577
247.835	570.38093
248.174	591.60898
248.513	626.57276
248.852	644.55518
249.19	636.09528
249.529	590.54827
249.868	583.12126
250.206	588.42663
250.545	578.87566
250.883	562.94414
251.221	576.75242
251.56	585.24363
251.898	576.75242
252.236	611.74894
252.574	620.22135
252.912	576.75242
253.25	552.31374
253.588	578.87566
253.926	595.8511
254.264	603.27207
254.602	597.97173
254.94	578.87566
255.278	566.13178
255.615	569.31875
255.953	580.99861
256.29	593.73018
256.628	601.15215
256.965	591.60898
257.303	603.27207
257.64	641.38322
257.977	633.97964
258.314	596.91145
258.652	593.73018
258.989	611.74894
259.326	588.42663
259.663	575.69069
260	604.33193
260.337	591.60898
260.673	604.33193
261.01	603.27207
261.347	582.05997
261.684	583.12126
262.02	603.27207
262.357	601.15215
262.693	579.93717
263.03	604.33193
263.366	611.74894
263.702	596.91145
264.039	594.79068
264.375	589.48748
264.711	599.03194
265.047	609.63015
265.383	597.97173
265.719	577.81408
266.055	589.48748
266.391	631.86373
266.727	618.10366
267.063	584.18248
267.399	579.93717
267.734	601.15215
268.07	619.16254
268.405	615.9857
268.741	612.80824
269.076	611.74894
269.412	613.86746
269.747	583.12126
270.082	592.66961
270.418	622.33876
270.753	615.9857
271.088	629.74755
271.423	584.18248
271.758	534.22446
272.093	575.69069
272.428	607.51107
272.763	594.79068
273.098	588.42663
273.433	615.9857
273.767	636.09528
274.102	615.9857
274.436	589.48748
274.771	590.54827
275.106	585.24363
275.44	591.60898
275.774	601.15215
276.109	585.24363
276.443	590.54827
276.777	601.15215
277.111	596.91145
277.445	597.97173
277.78	611.74894
278.114	641.38322
278.447	625.51436
278.781	603.27207
279.115	610.68958
279.449	580.99861
279.783	593.73018
280.116	617.04472
280.45	585.24363
280.784	632.92172
281.117	669.90963
281.451	626.57276
281.784	713.13934
282.117	731.03409
282.451	664.63053
282.784	630.80567
283.117	596.91145
283.45	625.51436
283.783	621.28009
284.116	642.44061
284.449	703.65871
284.782	722.61514
285.115	736.29405
285.448	747.86091
285.781	697.33557
286.114	669.90963
286.446	702.605
286.779	789.8656
287.111	783.57042
287.444	696.2815
287.776	724.72023
288.109	770.97429
288.441	808.7398
288.773	864.21921
289.106	941.46263
289.438	906.00242
289.77	863.17369
290.102	915.39378
290.434	889.29785
290.766	1036.14132
291.098	1119.12818
291.43	1097.36475
291.762	1125.34373
292.094	1108.7664
292.425	1098.40143
292.757	1119.12818
293.089	1223.61345
293.42	1210.1812
293.752	1163.64849
294.083	1275.2343
294.414	1385.49865
294.746	1360.78915
295.077	1389.61569
295.408	1462.63813
295.74	1528.37718
296.071	1603.27156
296.402	1615.57438
296.733	1669.8842
297.064	1701.6301
297.395	1722.10366
297.726	1814.16316
298.056	1888.75143
298.387	1952.04516
298.718	2078.48613
299.049	2157.92399
299.379	2080.52393
299.71	2068.29638
300.04	2114.14055
300.371	2209.8239
300.701	2257.62514
301.031	2354.16218
301.362	2467.83113
301.692	2430.29706
302.022	2507.37542
302.352	2619.81837
302.682	2652.20474
303.012	2692.66878
303.342	2857.33808
303.672	2880.54444
304.002	2973.29612
304.332	3133.31207
304.662	3059.89064
304.992	3075.98958
305.321	3157.43377
305.651	3237.7788
305.98	3358.12028
306.31	3419.21252
306.639	3499.25034
306.969	3539.23395
307.298	3588.18194
307.628	3678.99263
307.957	3641.08627
308.286	3675.00347
308.615	3784.6221
308.944	3964.62652
309.273	4052.97539
309.602	4094.63255
309.931	4184.81414
310.26	4230.36226
310.589	4359.94204
310.918	4520.91991
311.247	4670.80895
311.575	4536.70738
311.904	4558.41129
312.233	4748.63665
312.561	4720.07251
312.89	4850.0408
313.218	5130.31199
313.546	5090.01482
313.875	4936.62427
314.203	5060.52505
314.531	5161.75942
314.859	5208.92473
315.188	5301.27377
315.516	5355.30041
315.844	5441.73662
316.172	5511.47307
316.5	5561.5665
316.827	5657.83187
317.155	5717.76012
317.483	5858.28421
317.811	5892.68805
318.138	5922.18066
318.466	6085.44237
318.794	6086.42626
319.121	6046.09056
319.449	6177.95172
319.776	6238.99543
320.103	6227.17877
320.431	6363.12381
320.758	6475.51966
321.085	6459.73946
321.412	6552.47391
321.739	6635.39669
322.066	6539.6452
322.393	6592.94169
322.72	6765.80941
323.047	6862.71587
323.374	6956.72523
323.701	6938.90769
324.028	6989.39703
324.354	7155.85145
324.681	7233.20317
325.008	7296.70278
325.334	7363.2083
325.661	7409.87871
325.987	7489.34899
326.314	7523.13528
326.64	7572.83275
326.966	7697.13324
327.293	7666.29958
327.619	7659.33777
327.945	7793.64015
328.271	7836.43367
328.597	7833.44785
328.923	7830.46207
329.249	7802.59636
329.575	7842.40539
329.901	7838.42423
330.227	7884.21096
330.552	7935.97802
330.878	7967.83853
331.204	7991.73565
331.529	7930.00449
331.855	8108.25148
332.18	8316.42488
332.506	8315.42882
332.831	8240.72343
333.156	8281.56245
333.482	8405.07177
333.807	8452.87766
334.132	8481.75859
334.457	8492.71302
334.782	8622.15256
335.107	8690.83449
335.432	8662.96557
335.757	8838.08789
336.082	8877.86833
336.407	8936.52873
336.732	9068.68674
337.057	8958.39701
337.381	8997.15635
337.706	9086.56396
338.031	9041.86682
338.355	9136.21107
338.68	9177.90074
339.004	9027.9583
339.329	9129.26154
339.653	9267.1908
339.977	9184.84774
340.301	9212.63208
340.626	9397.04106
340.95	9439.63203
341.274	9425.76697
341.598	9451.51501
341.922	9519.81741
342.246	9584.12111
342.57	9589.06595
342.894	9702.73391
343.218	9801.47607
343.541	9933.64611
343.865	9981.93639
344.189	9998.68519
344.512	10064.67076
344.836	10034.14493
345.159	9982.92168
345.483	10005.58103
345.806	10030.20551
346.13	10236.84652
346.453	10366.56591
346.776	10156.20014
347.099	10221.11465
347.423	10286.97949
347.746	10223.08124
348.069	10363.61902
348.392	10558.98925
348.715	10512.8641
349.038	10468.69241
349.361	10531.51156
349.683	10653.17708
350.006	10784.6113
350.329	10877.78535
350.652	10950.37006
350.974	10940.56064
351.297	10918.98075
351.619	10861.11172
351.942	10947.42721
352.264	11003.34598
352.587	11101.48064
352.909	11194.76214
353.231	11063.20238
353.554	11193.77989
353.876	11351.05594
354.198	11373.68662
354.52	11433.73924
354.842	11387.46496
355.164	11522.43651
355.486	11580.65175
355.808	11432.75438
356.13	11534.27221
356.452	11618.17829
356.773	11549.07014
357.095	11424.87594
357.417	11366.79835
357.738	11431.76952
358.06	11663.64106
358.381	11741.81716
358.703	11620.1541
359.024	11521.45031
359.346	11507.64512
359.667	11613.23909
359.988	11625.09395
360.309	11658.69748
360.631	11730.92403
360.952	11916.48881
361.273	11868.77617
361.594	11862.81621
361.915	12172.04598
362.236	12221.19155
362.557	12183.0718
362.878	12201.12257
363.198	12102.97237
363.519	12098.97268
363.84	12187.08216
364.16	12176.05491
364.481	12224.20305
364.802	12283.49124
365.122	12299.59007
365.443	12221.19155
365.763	12028.05869
366.083	12004.12133
366.404	12020.07772
366.724	12071.98757
367.044	12100.97246
367.364	12038.03751
367.685	12013.0959
368.005	11794.33976
368.325	11750.73167
368.645	11993.15555
368.965	12113.97407
369.284	12033.04773
369.604	12138.99197
369.924	12271.42296
370.244	12333.82998
370.564	12472.22201
370.883	12459.05993
371.203	12476.27316
371.522	12383.24854
371.842	12532.03866
372.161	12692.89584
372.481	12606.23604
372.8	12616.41639
373.119	12608.27179
373.439	12822.91665
373.758	12846.5334
374.077	12571.65238
374.396	12546.25216
374.715	12509.71851
375.034	12311.67007
375.353	12059.0026
375.672	11676.49668
375.991	11073.01655
376.31	10614.91684
376.629	10361.65439
376.948	10567.82071
377.266	10967.04669
377.585	11222.26841
377.904	11729.93387
378.222	12163.02779
378.541	12584.87017
378.859	13117.04314
379.178	13368.10564
379.496	13288.72425
379.814	13008.30988
380.133	12677.58196
380.451	12694.93837
380.769	12515.80398
381.087	12245.29202
381.405	12218.18035
381.723	12286.50909
382.041	12415.56916
382.359	12438.82305
382.677	12468.17145
382.995	12629.65676
383.313	12633.73207
383.631	12471.20931
383.949	12507.69034
384.266	12722.5283
384.584	13001.0761
384.901	12930.90554
385.219	12855.78054
385.537	13016.5794
385.854	12937.08969
386.171	12797.27051
386.489	12971.12807
386.806	12953.58775
387.123	12851.6703
387.441	12905.15374
387.758	12865.03096
388.075	12739.91481
388.392	12692.89584
388.709	12570.6359
389.026	12352.98198
389.343	12448.93961
389.66	12692.89584
389.977	12804.44888
390.294	12851.6703
390.61	13131.57238
390.927	13238.68344
391.244	13114.96813
391.56	13002.10938
391.877	12745.0307
392.193	12635.76997
392.51	12817.7854
392.826	12765.50437
393.143	12561.48936
393.459	12646.98123
393.775	12797.27051
394.092	12837.28952
394.408	12963.9042
394.724	13100.44723
395.04	13129.49633
395.356	13205.3661
395.672	13532.59637
395.988	13740.71445
396.304	13761.75782
396.62	13757.54903
396.936	13750.18378
397.252	13863.81894
397.567	13945.8417
397.883	14010.96845
398.199	13907.99427
398.514	13862.76695
398.83	13892.21943
399.146	13643.95013
399.461	13646.0528
399.777	13745.97515
400.092	13770.17552
400.407	13790.16796
400.723	13427.75278
401.038	13050.71742
401.353	13088.00659
401.668	13092.15287
401.983	12917.51148
402.298	12776.77178
402.613	12772.67398
402.928	12658.19732
403.243	12423.65523
403.558	12541.17503
403.873	12708.21875
404.188	12608.27179
404.503	12537.11404
404.817	12619.47126
405.132	12643.92314
405.447	12846.5334
405.761	12854.75292
406.076	12662.2771
406.39	12818.81157
406.705	12936.0589
407.019	12992.81127
407.334	13026.9198
407.648	12928.84448
407.962	12818.81157
408.276	12849.61541
408.591	12987.64703
408.905	12948.43101
409.219	12983.51634
409.533	13046.57724
409.847	13002.10938
410.161	13045.54229
410.475	13214.73302
410.789	13187.68076
411.102	12951.52493
411.416	12897.94771
411.73	13054.85822
412.044	13137.80141
412.357	13023.81727
412.671	12958.74548
412.984	12972.16021
413.298	12825.99588
413.611	12847.56069
413.925	12911.33189
414.238	12840.37045
414.552	12918.54156
414.865	12806.50021
415.178	12708.21875
415.491	12605.21822
415.804	12493.49738
416.118	12468.17145
416.431	12311.67007
416.744	12316.70491
417.057	12363.0672
417.37	12450.96337
417.683	12262.37501
417.995	12042.02986
418.308	12087.97607
418.621	12203.12887
418.934	12150.0061
419.246	12141.99545
419.559	12385.26747
419.872	12680.64402
420.184	12918.54156
420.497	12812.65516
420.809	12960.80885
421.121	12789.06908
421.434	12495.52449
421.746	12741.96104
422.058	12622.52649
422.371	12323.75517
422.683	12154.0122
422.995	11952.3129
423.307	12039.03555
423.619	12100.97246
423.931	12024.06797
424.243	11975.21889
424.555	11786.40775
424.867	11726.96354
425.179	11716.07395
425.491	11617.19041
425.802	11561.89806
426.114	11446.54376
426.426	11429.79986
426.737	11555.97713
427.049	11534.27221
427.361	11515.53342
427.672	11500.74368
427.984	11450.48409
428.295	11472.15998
428.606	11380.57548
428.918	11338.26743
429.229	11397.30814
429.54	11193.77989
429.851	10919.96164
430.163	10856.20777
430.474	10884.65106
430.785	10998.4404
431.096	11055.35141
431.407	10977.8379
431.718	10901.32523
432.029	10739.49496
432.339	10785.59208
432.65	10993.5349
432.961	10925.84697
433.272	10886.61271
433.582	11011.19512
433.893	10948.40815
434.204	10879.74698
434.514	10922.90429
434.825	10927.80876
435.135	10970.97072
435.446	11052.40737
435.756	11107.37035
436.066	11085.77574
436.377	11164.31599
436.687	11182.97567
436.997	11040.63166
437.307	11144.67704
437.617	11179.04709
437.927	10971.95174
438.237	10924.86607
438.547	11001.38374
438.857	11214.40881
439.167	11455.40982
439.477	11348.10457
439.787	11343.18586
440.097	11454.42464
440.407	11369.75039
440.716	11087.73877
441.026	10954.2939
441.336	11186.90437
441.645	11100.49904
441.955	10933.69419
442.264	11062.22099
442.574	11226.19841
442.883	10969.98971
443.192	10815.01518
443.502	10999.42151
443.811	10877.78535
444.12	10823.8421
444.429	10789.51517
444.739	10685.54806
445.048	10593.3321
445.357	10480.47248
445.666	10584.50151
445.975	10628.65179
446.284	10452.98451
446.593	10323.33913
446.901	10295.82458
447.21	10493.23343
447.519	10423.52855
447.828	10270.27055
448.136	10239.79604
448.445	10406.83464
448.754	10603.14354
449.062	10466.72899
449.371	10446.11189
449.679	10642.38616
449.988	10875.82373
450.296	11195.7444
450.605	11522.43651
450.913	11878.71145
451.221	12326.77724
451.529	12514.78964
451.838	12356.00717
452.146	11921.46232
452.454	11746.76945
452.762	11828.06748
453.07	11537.2315
453.378	11312.69612
453.686	11304.82951
453.994	11331.38211
454.302	11120.13214
454.609	10672.79615
454.917	10448.07552
455.225	10333.16449
455.533	10357.72507
455.84	10418.61875
456.148	10361.65439
456.455	10190.62868
456.763	10212.26463
457.07	10437.27527
457.378	10510.90111
457.685	10445.13006
457.993	10452.00272
458.3	10568.80196
458.607	10631.59492
458.915	10803.24595
459.222	11083.81273
459.529	10969.0087
459.836	10869.9389
460.143	10673.77708
460.45	10474.58253
460.757	10410.76277
461.064	10393.08546
461.371	10610.01136
461.678	10658.08194
461.985	10703.20397
462.292	10875.82373
462.598	11283.19975
462.905	11679.46384
463.212	11855.86406
463.518	12021.07524
463.825	12241.27392
464.131	12637.80802
464.438	12742.98422
464.744	12388.29615
465.051	12067.99166
465.357	12128.98245
465.664	12154.0122
465.97	11673.5297
466.276	11498.77198
466.582	11487.92873
466.889	11449.49898
467.195	11768.56607
467.501	12170.04171
467.807	12886.62794
468.113	13754.39248
468.419	14459.9042
468.725	14848.02232
469.031	15217.4396
469.337	15334.7388
469.642	15025.94854
469.948	14711.59943
470.254	14498.69217
470.56	14033.00714
470.865	13396.34832
471.171	13131.57238
471.477	12791.11919
471.782	12349.95712
472.088	12182.06929
472.393	12099.97256
472.698	11752.71292
473.004	11399.27693
473.309	11572.7547
473.614	12039.03555
473.92	12385.26747
474.225	12359.03268
474.53	12199.1164
474.835	12219.18405
475.14	11999.13646
475.445	11715.08411
475.75	11288.11517
476.055	10909.17205
476.36	10734.59089
476.665	10378.35292
476.97	10151.281
477.275	10211.28126
477.58	10262.40682
477.885	10222.09794
478.189	10066.63988
478.494	9863.63616
478.799	9750.14172
479.103	9788.64483
479.408	9830.09398
479.712	9905.05602
480.017	10025.28105
480.321	10269.28761
480.625	10393.08546
480.93	10485.38063
481.234	10987.64843
481.538	11537.2315
481.843	11842.95613
482.147	12063.99622
482.451	12325.76984
482.755	12593.0075
483.059	12640.8654
483.363	12498.56543
483.667	12681.66478
483.971	12843.45174
484.275	12756.28922
484.579	12856.80821
484.883	12890.74366
485.187	12762.43229
485.49	12709.2406
485.794	12509.71851
486.098	12392.3349
486.401	12267.4013
486.705	12177.05723
487.009	12143.99792
487.312	11966.25394
487.616	11981.19677
487.919	11970.23808
488.222	11897.59547
488.526	11927.43139
488.829	11859.83657
489.132	11897.59547
489.436	11849.90604
489.739	11821.1213
490.042	11949.32623
490.345	11901.57224
490.648	11849.90604
490.951	11750.73167
491.254	11845.93451
491.557	12024.06797
491.86	12103.97237
492.163	12436.80019
492.466	12927.814
492.769	13442.41636
493.072	13679.70184
493.375	13752.28812
493.677	13820.68254
493.98	13767.01886
494.283	13510.56026
494.585	13267.86465
494.888	13218.89701
495.19	12972.16021
495.493	12751.17111
495.795	12466.14641
496.098	12202.1257
496.4	12105.97246
496.702	11990.16547
497.005	12055.00824
497.307	12009.10692
497.609	11880.69881
497.911	11850.89898
498.213	11820.12909
498.515	11834.02229
498.818	11790.37357
499.12	11728.94374
499.422	11712.11473
499.723	11644.85805
500.025	11693.313
500.327	11708.15585
500.629	11720.0335
500.931	11810.20823
501.233	11809.21628
501.534	11729.93387
501.836	11596.44923
502.138	11720.0335
502.439	11860.82976
502.741	11812.19221
503.042	11824.09809
503.344	11845.93451
503.645	11995.14907
503.947	11927.43139
504.248	11893.61912
504.55	11945.34438
504.851	11942.35828
505.152	12037.03949
505.453	11885.66765
505.755	11796.32299
506.056	11800.28974
506.357	11817.15258
506.658	11811.20021
506.959	11783.43362
507.26	11852.88494
507.561	11764.60225
507.862	11642.88129
508.163	11712.11473
508.464	11675.50767
508.764	11678.47477
509.065	11665.61863
509.366	11620.1541
509.667	11654.74297
509.967	11471.17456
510.268	11391.40208
510.569	11547.09687
510.869	11539.20444
511.17	11412.07532
511.47	11473.14542
511.771	11427.83025
512.071	11484.9718
512.371	11371.71848
512.672	11200.6558
512.972	11269.4379
513.272	11233.07625
513.573	11182.97567
513.873	11198.69121
514.173	11199.6735
514.473	11157.44204
514.773	11054.37006
515.073	10965.08469
515.373	11076.94236
515.673	11119.15043
515.973	11002.36486
516.273	11061.23961
516.573	11018.06331
516.873	10780.6882
517.172	10770.88041
517.472	10818.93825
517.772	10916.03812
518.072	10844.43836
518.371	10827.76519
518.671	10783.63053
518.97	10719.87846
519.27	10742.43739
519.569	10590.3886
519.869	10534.45576
520.168	10571.7457
520.468	10556.04537
520.767	10543.28811
521.066	10414.6908
521.366	10368.53047
521.665	10391.1212
521.964	10372.45952
522.263	10410.76277
522.562	10427.4563
522.861	10423.52855
523.161	10386.21044
523.46	10308.59985
523.759	10301.721
524.057	10350.8485
524.356	10249.62728
524.655	10170.9564
524.954	10202.43056
525.253	10175.87476
525.552	10224.06452
525.85	10260.44082
526.149	10101.09419
526.448	9977.99513
526.746	9882.3757
527.045	9908.01396
527.344	10009.52131
527.642	10103.0627
527.941	10032.17524
528.239	9946.4599
528.537	9981.93639
528.836	9929.7031
529.134	9848.83944
529.432	9763.96497
529.731	9819.23982
530.029	9855.74483
530.327	9709.64888
530.625	9667.16403
530.923	9637.51331
531.221	9630.59361
531.52	9625.65069
531.818	9503.98295
532.116	9525.75474
532.413	9493.09543
532.711	9429.72859
533.009	9512.89012
533.307	9481.21691
533.605	9348.48784
533.903	9257.2728
534.2	9308.83763
534.498	9257.2728
534.796	9247.35401
535.093	9334.61178
535.391	9315.77737
535.689	9170.95336
535.986	9049.81397
536.284	9143.16024
536.581	9225.52991
536.878	9319.74275
537.176	9242.39432
537.473	9120.32592
537.77	9005.10583
538.068	8911.675
538.365	8954.42117
538.662	9052.79404
538.959	9035.90618
539.256	8846.04464
539.554	8781.387
539.851	8825.15749
540.148	8784.37164
540.445	8766.46319
540.742	8792.33047
541.039	8743.57808
541.335	8821.17874
541.632	8839.0825
541.929	8627.13006
542.226	8582.32984
542.523	8664.9563
542.819	8651.02089
543.116	8661.9702
543.413	8582.32984
543.709	8469.80805
544.006	8555.4469
544.302	8617.17499
544.599	8464.82857
544.895	8398.09981
545.192	8496.69638
545.488	8565.40377
545.785	8554.4512
546.081	8432.95895
546.377	8411.04768
546.673	8462.83677
546.97	8442.91838
547.266	8401.0878
547.562	8395.11181
547.858	8355.27095
548.154	8245.70379
548.45	8170.99952
548.746	8256.66059
549.042	8347.3026
549.338	8249.68808
549.634	8247.69593
549.93	8200.88086
550.226	8147.09499
550.522	8148.091
550.818	8055.46764
551.113	8055.46764
551.409	8099.28788
551.705	8088.33252
552	8038.538
552.296	8065.42649
552.592	8036.54632
552.887	8000.69742
553.183	8035.55048
553.478	7924.03106
553.774	7881.22465
554.069	8014.63833
554.364	7952.90358
554.66	7763.78844
554.955	7771.74854
555.25	7813.54325
555.546	7757.81854
555.841	7799.61092
556.136	7744.88426
556.431	7652.37619
556.726	7638.45375
557.021	7659.33777
557.316	7680.2239
557.611	7661.32683
557.906	7705.09103
558.201	7628.50975
558.496	7591.72133
558.791	7604.64619
559.086	7529.09824
559.381	7502.26649
559.675	7552.95212
559.97	7649.39273
560.265	7571.83867
560.56	7350.30195
560.854	7401.93383
561.149	7433.71574
561.443	7385.05229
561.738	7348.31646
562.032	7353.28025
562.327	7345.33826
562.621	7240.14708
562.916	7234.19514
563.21	7279.83298
563.504	7233.20317
563.799	7129.08593
564.093	7078.54326
564.387	6913.17557
564.681	6865.68355
564.976	7038.91529
565.27	7061.69993
565.564	7021.08657
565.858	7051.79309
566.152	6939.89749
566.446	6903.27996
566.74	6991.3774
567.034	6932.96906
567.328	6931.97931
567.622	6983.4561
567.916	6904.26949
568.209	6861.72666
568.503	6887.44856
568.797	6827.10913
569.091	6810.29825
569.384	6788.54624
569.678	6699.59879
569.972	6793.48955
570.265	6878.54425
570.559	6750.9832
570.852	6725.28845
571.146	6789.53489
571.439	6696.63492
571.733	6552.47391
572.026	6639.34668
572.319	6773.71742
572.613	6749.0065
572.906	6703.55071
573.199	6695.64698
573.492	6621.57264
573.786	6540.63198
574.079	6736.15869
574.372	6778.66017
574.665	6564.31688
574.958	6493.27451
575.251	6477.49231
575.544	6459.73946
575.837	6410.43767
576.13	6431.14234
576.423	6571.22576
576.716	6575.17385
577.009	6445.93323
577.301	6445.93323
577.594	6419.31074
577.887	6280.36056
578.18	6390.7217
578.472	6458.75325
578.765	6397.62199
579.057	6356.22515
579.35	6295.13644
579.643	6238.99543
579.935	6212.40914
580.228	6260.66154
580.52	6283.31563
580.813	6217.3322
581.105	6144.4854
581.397	6141.5328
581.69	6186.81153
581.982	6147.43806
582.274	6114.96152
582.566	6127.75461
582.859	6138.58024
583.151	6159.24917
583.443	6167.12368
583.735	6273.46563
584.027	6267.55592
584.319	6059.8628
584.611	6033.3029
584.903	6028.38479
585.195	5989.044
585.487	6006.74646
585.779	5966.42629
586.071	6026.41757
586.363	6056.91152
586.654	6119.88183
586.946	6096.26552
587.238	5955.60992
587.529	5980.19332
587.821	5989.044
588.113	5905.46776
588.404	5816.02237
588.696	5839.60962
588.987	5891.70502
589.279	5917.26499
589.57	5901.53547
589.862	5923.16381
590.153	5942.82759
590.445	5853.36972
590.736	5750.18373
591.027	5654.88476
591.319	5687.30384
591.61	5864.1817
591.901	5865.16463
592.192	5708.91776
592.484	5672.56764
592.775	5632.29078
593.066	5684.35657
593.357	5791.45421
593.648	5740.35811
593.939	5576.30024
594.23	5515.40192
594.521	5539.95737
594.812	5558.61978
595.103	5575.31799
595.393	5500.66879
595.684	5373.96328
595.975	5394.59028
596.266	5487.90013
596.557	5468.2561
596.847	5299.30908
597.138	5216.78501
597.429	5270.82027
597.719	5280.64417
598.01	5268.85547
598.3	5206.95964
598.591	5183.37767
598.881	5278.67941
599.172	5324.84955
599.462	5305.20313
599.753	5191.2385
600.043	5103.77552
600.333	5080.18529
600.624	5047.74501
600.914	4973.01582
601.204	4958.26335
601.494	5026.1156
601.785	4973.99928
602.075	4943.50971
602.365	4991.70067
602.655	4976.94962
602.945	4917.93388
603.235	4924.82005
603.525	4898.25761
603.815	4880.54698
604.105	4913.99881
604.395	4963.18097
604.685	4861.85034
604.975	4837.2461
605.265	4826.41898
605.554	4749.62151
605.844	4818.54421
606.134	4864.80259
606.424	4857.91393
606.713	4774.24067
607.003	4730.90791
607.293	4799.83995
607.582	4814.60667
607.872	4780.14861
608.161	4712.19164
608.451	4649.12671
608.74	4657.9972
609.03	4635.32686
609.319	4643.21269
609.608	4631.38374
609.898	4613.63805
610.187	4636.31261
610.476	4614.624
610.766	4674.75076
611.055	4715.14702
611.344	4644.19838
611.633	4604.76417
611.922	4527.82722
612.211	4503.15613
612.501	4571.23426
612.79	4624.48297
613.079	4597.86178
613.368	4580.11082
613.657	4588.00049
613.946	4572.22058
614.234	4599.83394
614.523	4609.69419
614.812	4734.84784
615.101	4662.92496
615.39	4510.06463
615.679	4549.53295
615.967	4607.72221
616.256	4590.95897
616.545	4454.78337
616.833	4447.87105
617.122	4461.6952
617.411	4485.38926
617.699	4547.55988
617.988	4440.95823
618.276	4391.56646
618.565	4442.93337
618.853	4453.79592
619.141	4452.80847
619.43	4389.59025
619.718	4513.02527
620.007	4622.51124
620.295	4514.01214
620.583	4411.32626
620.871	4449.84605
621.16	4477.49187
621.448	4464.65727
621.736	4638.28411
622.024	4576.16577
622.312	4494.27308
622.6	4498.2212
622.888	4420.21682
623.176	4363.89569
623.464	4287.75728
623.752	4333.25039
624.04	4389.59025
624.328	4331.27292
624.616	4310.50678
624.904	4367.84917
625.192	4335.22782
625.479	4215.51237
625.767	4142.21357
626.055	4173.91846
626.343	4243.23004
626.63	4216.50244
626.918	4176.89015
627.206	4188.77585
627.493	4195.70837
627.781	4131.31211
628.068	4102.56472
628.356	4181.84274
628.643	4164.01202
628.931	4056.94371
629.218	3931.84134
629.505	3937.80337
629.793	4025.19138
630.08	3989.45411
630.367	3969.5927
630.655	3994.41864
630.942	3980.51713
631.229	4037.10005
631.516	3980.51713
631.804	3933.82874
632.091	3904.01212
632.378	3881.14442
632.665	3948.73249
632.952	3959.66
633.239	3927.86639
633.526	3919.91583
633.813	3866.22681
634.1	3852.30091
634.387	3896.05895
634.674	3861.25358
634.961	3763.70819
635.247	3846.33184
635.534	3837.3773
635.821	3723.85489
636.108	3798.56125
636.394	3707.90719
636.681	3617.13465
636.968	3614.14011
637.255	3591.17761
637.541	3613.1419
637.828	3632.10539
638.114	3533.23791
638.401	3505.24938
638.687	3488.25073
638.974	3491.2508
639.26	3639.09062
639.547	3623.12334
639.833	3456.24173
640.119	3498.25045
640.406	3548.22703
640.692	3507.24894
640.978	3536.236
641.265	3496.25062
641.551	3414.20702
641.837	3357.11831
642.123	3418.21145
642.409	3464.24539
642.696	3412.20472
642.982	3407.19871
643.268	3355.11433
643.554	3356.11633
643.84	3542.23178
644.126	3524.24285
644.412	3550.22533
644.698	3630.10948
644.984	3573.20159
645.269	3445.23515
645.555	3483.25031
645.841	3708.90403
646.127	3699.93196
646.413	3696.94102
646.698	3767.69227
646.984	3700.92892
647.27	3667.02446
647.556	3741.79169
647.841	3834.3922
648.127	3943.76491
648.412	3906.00027
648.698	3976.54479
648.984	4039.08465
649.269	3988.46116
649.554	4079.75757
649.84	4088.6829
650.125	4124.37404
650.411	4131.31211
650.696	3949.72597
650.982	3982.50322
651.267	4072.81493
651.552	4045.03813
651.837	3991.43996
652.123	3998.39002
652.408	3989.45411
652.693	3902.02391
652.978	3828.42163
653.263	3783.62634
653.549	3771.67613
653.834	3770.68018
654.119	3761.71606
654.404	3716.87822
654.689	3778.64733
654.974	3725.84809
655.259	3635.09915
655.544	3702.92278
655.828	3733.82035
656.113	3727.84124
656.398	3815.48368
656.683	3982.50322
656.968	2783.63497
657.253	1071.43711
657.537	603.27207
657.822	562.94414
658.107	595.8511
658.391	638.21066
658.676	615.9857
658.961	587.3657
659.245	578.87566
659.53	576.75242
659.814	569.31875
660.099	579.93717
660.383	565.06931
660.668	542.73986
